Fp1 Fpz Fp2 AF3 AF4 F7 F5 F3 F1 Fz F2 F4 F6 F8 FC5 FC3 FC1 FCz FC2 FC4 FC6 T7 C5 C3 C1 Cz C2 C4 C6 T8 TP7 CP5 CP3 CP1 CPz CP2 CP4 CP6 TP8 P7 P5 P3 P1 Pz P2 P4 P6 P8 PO7 PO3 AF7 POz AF8 PO4 PO8 O1 Oz O2 FT7 FT8 LM HEOG
1,278 2,063 -3,241 -7,001 1,553 3,793 -4,902 -4,493 -5,235 4,948 0,646 -2,781 -3,112 -6,195 -4,740 -4,086 3,762 4,469 2,047 -4,325 -1,545 0,717 -0,343 3,649 6,778 0,665 -1,099 -5,701 -5,509 -18,885 -7,200 0,708 5,077 5,196 6,147 -3,514 -4,176 -2,516 -14,260 -6,912 0,530 4,241 2,957 4,431 -2,214 -7,233 -12,083 -12,622 -0,136 3,825 2,654 0,405 -4,537 -7,782 -12,391 -0,071 -4,640 -9,979 3,143 -8,271 -7,508 6,628
0,948 1,878 -2,960 -7,303 1,674 3,813 -5,241 -4,800 -5,690 4,526 0,616 -2,499 -2,502 -5,253 -5,101 -4,396 3,394 4,214 2,070 -4,028 -0,811 0,016 -0,495 3,206 6,473 0,604 -1,028 -5,274 -4,660 -19,032 -7,265 0,212 4,367 4,575 5,613 -3,596 -4,133 -2,036 -13,579 -7,110 -0,175 3,347 1,798 3,522 -2,552 -7,327 -12,003 -12,363 -0,459 2,930 2,351 -0,444 -4,112 -7,841 -12,397 -0,736 -5,099 -10,390 3,011 -7,515 -7,468 6,102
0,475 1,755 -2,658 -7,873 1,778 3,832 -5,723 -5,300 -6,288 4,058 0,579 -2,388 -1,965 -4,212 -5,601 -4,849 3,031 3,975 2,151 -3,683 -0,092 -0,386 -0,561 2,778 6,206 0,612 -0,829 -4,719 -4,031 -18,404 -7,323 -0,223 3,664 3,984 5,119 -3,510 -3,930 -1,465 -12,238 -7,254 -0,924 2,351 0,574 2,704 -2,620 -7,123 -11,539 -11,674 -0,687 1,981 1,914 -1,158 -3,599 -7,405 -11,907 -1,278 -5,346 -10,433 3,007 -6,637 -7,695 5,550
-0,030 1,748 -2,372 -8,540 1,874 3,839 -6,205 -5,864 -6,865 3,630 0,555 -2,398 -1,566 -3,234 -6,099 -5,296 2,767 3,821 2,326 -3,294 0,536 -0,154 -0,439 2,500 6,082 0,758 -0,433 -4,043 -3,738 -16,856 -7,259 -0,444 3,128 3,576 4,843 -3,125 -3,477 -0,816 -10,312 -7,229 -1,544 1,449 -0,449 2,182 -2,267 -6,485 -10,559 -10,481 -0,698 1,178 1,438 -1,520 -3,095 -6,293 -10,749 -1,504 -5,209 -9,890 3,170 -5,758 -8,161 5,085
-0,400 1,861 -2,124 -9,010 1,987 3,833 -6,512 -6,296 -7,230 3,326 0,576 -2,364 -1,256 -2,433 -6,428 -5,563 2,649 3,785 2,623 -2,816 1,118 0,786 -0,130 2,444 6,151 1,061 0,189 -3,238 -3,611 -14,655 -7,017 -0,395 2,858 3,436 4,891 -2,377 -2,724 -0,025 -8,196 -6,983 -1,915 0,798 -1,093 2,026 -1,483 -5,396 -9,065 -8,892 -0,427 0,655 1,072 -1,451 -2,672 -4,559 -8,963 -1,322 -4,643 -8,729 3,451 -4,942 -8,719 4,804
-0,518 2,054 -1,916 -9,074 2,122 3,829 -6,541 -6,446 -7,278 3,192 0,667 -2,179 -0,950 -1,832 -6,487 -5,558 2,670 3,859 3,040 -2,195 1,723 2,171 0,260 2,587 6,376 1,472 0,987 -2,322 -3,363 -12,347 -6,645 -0,133 2,868 3,546 5,228 -1,345 -1,732 0,958 -6,422 -6,541 -2,001 0,456 -1,346 2,139 -0,432 -4,009 -7,238 -7,185 0,112 0,423 0,925 -1,061 -2,327 -2,505 -6,824 -0,786 -3,765 -7,152 3,767 -4,210 -9,176 4,753
-0,453 2,226 -1,781 -8,803 2,201 3,783 -6,351 -6,327 -7,055 3,190 0,796 -1,945 -0,673 -1,441 -6,323 -5,356 2,745 3,967 3,481 -1,506 2,288 3,537 0,561 2,806 6,621 1,858 1,795 -1,440 -2,932 -10,533 -6,196 0,208 3,060 3,758 5,661 -0,293 -0,739 2,020 -5,365 -5,951 -1,854 0,339 -1,367 2,288 0,559 -2,645 -5,418 -5,687 0,817 0,360 0,937 -0,614 -2,059 -0,590 -4,726 -0,078 -2,830 -5,522 3,969 -3,646 -9,319 4,911
-0,431 2,250 -1,801 -8,517 2,070 3,563 -6,143 -6,125 -6,721 3,205 0,865 -1,935 -0,588 -1,315 -6,123 -5,154 2,723 3,969 3,790 -0,964 2,619 4,424 0,595 2,909 6,701 2,037 2,366 -0,824 -2,546 -9,707 -5,672 0,454 3,227 3,848 5,909 0,437 -0,078 2,911 -5,075 -5,263 -1,623 0,246 -1,409 2,189 1,121 -1,672 -3,954 -4,624 1,473 0,245 0,892 -0,431 -1,954 0,764 -3,002 0,502 -2,163 -4,214 3,830 -3,415 -9,037 5,168
-0,694 2,007 -2,064 -8,583 1,588 3,000 -6,160 -6,092 -6,459 3,106 0,763 -2,386 -0,876 -1,530 -6,120 -5,169 2,450 3,732 3,818 -0,796 2,535 4,480 0,210 2,705 6,449 1,844 2,476 -0,674 -2,506 -10,145 -5,129 0,423 3,138 3,614 5,727 0,589 -0,005 3,398 -5,363 -4,600 -1,529 -0,057 -1,718 1,615 1,000 -1,354 -3,060 -4,079 1,802 -0,140 0,555 -0,776 -2,150 1,305 -1,850 0,601 -2,056 -3,490 3,137 -3,652 -8,434 5,363
-1,342 1,447 -2,600 -9,155 0,763 2,006 -6,533 -6,382 -6,402 2,802 0,432 -3,288 -1,574 -2,105 -6,453 -5,510 1,849 3,200 3,477 -1,110 1,984 3,569 -0,647 2,107 5,786 1,200 2,020 -1,078 -2,969 -11,704 -4,725 -0,006 2,653 2,962 5,010 0,078 -0,602 3,345 -6,038 -4,140 -1,743 -0,709 -2,430 0,474 0,144 -1,766 -2,814 -4,062 1,614 -0,892 -0,167 -1,753 -2,714 0,979 -1,347 0,002 -2,637 -3,427 1,866 -4,375 -7,712 5,416
-2,220 0,665 -3,310 -10,000 -0,160 0,713 -7,148 -6,898 -6,547 2,322 -0,057 -4,290 -2,490 -2,935 -7,024 -6,061 1,002 2,465 2,814 -1,829 1,097 1,921 -1,822 1,234 4,800 0,193 1,088 -1,963 -3,867 -13,746 -4,580 -0,766 1,826 1,972 3,877 -0,972 -1,731 2,765 -7,003 -3,978 -2,234 -1,628 -3,474 -1,097 -1,272 -2,777 -3,175 -4,534 0,981 -1,875 -1,121 -3,205 -3,550 -0,062 -1,442 -1,166 -3,728 -3,878 0,273 -5,470 -6,963 5,409
-2,945 -0,082 -3,966 -10,570 -0,773 -0,527 -7,666 -7,313 -6,686 1,867 -0,475 -4,845 -3,254 -3,775 -7,509 -6,501 0,182 1,773 2,065 -2,681 0,156 0,100 -2,949 0,405 3,782 -0,877 -0,011 -3,063 -4,919 -15,528 -4,607 -1,563 0,951 0,955 2,686 -2,211 -3,032 1,861 -8,159 -3,976 -2,712 -2,458 -4,504 -2,681 -2,832 -4,029 -3,928 -5,316 0,299 -2,687 -1,935 -4,668 -4,393 -1,437 -1,923 -2,364 -4,832 -4,502 -1,204 -6,715 -6,159 5,520
-3,104 -0,469 -4,275 -10,355 -0,709 -1,278 -7,705 -7,261 -6,497 1,751 -0,509 -4,515 -3,470 -4,297 -7,536 -6,480 -0,230 1,453 1,610 -3,282 -0,496 -1,225 -3,588 0,025 3,147 -1,573 -0,844 -3,970 -5,744 -16,692 -4,525 -1,969 0,485 0,371 1,928 -3,161 -4,034 1,003 -9,286 -3,792 -2,722 -2,703 -4,992 -3,685 -3,985 -5,023 -4,686 -6,068 0,141 -2,794 -2,202 -5,525 -4,867 -2,603 -2,439 -2,893 -5,343 -4,889 -2,126 -7,816 -5,301 5,896
-2,490 -0,257 -4,013 -9,226 0,152 -1,209 -7,066 -6,556 -5,762 2,214 0,069 -3,253 -2,944 -4,245 -6,900 -5,822 0,065 1,774 1,778 -3,299 -0,604 -1,554 -3,436 0,384 3,254 -1,525 -1,045 -4,312 -6,043 -17,228 -4,055 -1,637 0,814 0,601 1,989 -3,443 -4,360 0,561 -10,096 -3,085 -1,908 -1,996 -4,526 -3,634 -4,278 -5,320 -5,048 -6,430 0,918 -1,833 -1,692 -5,305 -4,676 -3,069 -2,637 -2,325 -4,883 -4,738 -2,202 -8,493 -4,509 6,580
-1,221 0,573 -3,148 -7,508 1,597 -0,282 -5,840 -5,293 -4,545 3,264 1,258 -1,447 -1,817 -3,626 -5,685 -4,618 1,114 2,786 2,668 -2,642 -0,123 -0,758 -2,463 1,506 4,212 -0,628 -0,480 -3,922 -5,734 -17,194 -3,112 -0,487 2,037 1,734 2,961 -2,938 -3,876 0,732 -10,360 -1,747 -0,217 -0,313 -3,047 -2,413 -3,540 -4,721 -4,763 -6,175 2,646 0,166 -0,491 -3,901 -3,814 -2,591 -2,274 -0,720 -3,456 -3,947 -1,405 -8,601 -3,939 7,513
0,339 1,816 -1,871 -5,766 3,223 1,233 -4,377 -3,817 -3,179 4,661 2,816 0,315 -0,491 -2,759 -4,229 -3,198 2,689 4,283 4,101 -1,503 0,783 0,888 -0,928 3,136 5,833 0,921 0,709 -2,889 -4,942 -16,656 -1,862 1,272 3,918 3,550 4,631 -1,781 -2,700 1,491 -9,996 0,035 2,089 2,035 -0,845 -0,283 -1,892 -3,301 -3,798 -5,274 4,999 2,811 1,063 -1,556 -2,574 -1,205 -1,267 1,525 -1,353 -2,587 0,012 -8,177 -3,721 8,567
1,752 3,140 -0,518 -4,544 4,652 2,899 -3,154 -2,601 -2,119 6,041 4,370 1,501 0,579 -2,109 -3,001 -2,017 4,396 5,881 5,705 -0,242 1,841 2,854 0,741 4,847 7,712 2,729 2,186 -1,499 -3,916 -15,767 -0,672 3,218 5,991 5,614 6,574 -0,291 -1,138 2,626 -9,103 1,845 4,526 4,537 1,584 2,256 0,319 -1,380 -2,362 -3,908 7,474 5,512 2,535 1,258 -1,310 0,793 0,281 3,910 1,002 -0,861 1,617 -7,422 -3,936 9,573
2,662 4,229 0,603 -4,165 5,686 4,318 -2,580 -2,054 -1,736 7,071 5,575 1,824 1,156 -1,918 -2,404 -1,477 5,840 7,192 7,088 0,814 2,804 4,679 2,148 6,227 9,403 4,380 3,588 -0,078 -2,887 -14,737 0,067 4,907 7,781 7,452 8,338 1,153 0,439 3,853 -7,930 3,256 6,607 6,703 3,733 4,665 2,633 0,608 -0,820 -2,403 9,622 7,700 3,540 4,021 -0,161 2,955 2,087 6,059 3,213 0,946 2,996 -6,577 -4,430 10,393
2,921 4,927 1,378 -4,607 6,374 5,312 -2,799 -2,315 -2,148 7,596 6,279 1,423 1,373 -1,942 -2,590 -1,732 6,795 8,008 8,034 1,541 3,593 6,280 3,126 7,058 10,616 5,614 4,706 1,185 -1,938 -13,733 0,141 6,106 9,025 8,762 9,651 2,299 1,780 4,957 -6,746 4,054 8,078 8,261 5,286 6,594 4,673 2,315 0,483 -1,049 11,258 9,048 3,880 6,379 0,972 4,885 3,819 7,859 5,086 2,584 3,955 -5,752 -4,665 11,007
2,613 5,260 1,867 -5,560 6,897 5,934 -3,683 -3,249 -3,248 7,623 6,515 0,773 1,569 -1,749 -3,451 -2,653 7,219 8,310 8,535 1,986 4,273 7,992 3,755 7,344 11,261 6,355 5,517 2,252 -1,036 -12,858 -0,440 6,836 9,708 9,484 10,461 3,088 2,811 5,836 -5,734 4,250 8,944 9,174 6,168 7,932 6,245 3,582 1,331 -0,004 12,435 9,475 3,578 8,203 2,139 6,362 5,218 9,390 6,610 3,900 4,561 -4,935 -3,971 11,462
1,907 5,318 2,118 -6,713 7,340 6,323 -4,992 -4,611 -4,863 7,191 6,350 0,261 1,893 -1,271 -4,768 -3,997 7,150 8,135 8,667 2,221 4,882 10,280 4,221 7,208 11,380 6,624 6,059 3,124 -0,160 -12,183 -1,517 7,247 9,939 9,690 10,813 3,560 3,546 6,447 -4,970 3,953 9,318 9,528 6,465 8,709 7,301 4,388 1,659 0,693 13,252 9,046 2,780 9,486 3,158 7,326 6,160 10,696 7,792 4,820 4,990 -4,154 -2,068 11,763
0,885 5,122 2,081 -8,029 7,569 6,511 -6,569 -6,233 -6,896 6,308 5,791 -0,134 2,160 -0,854 -6,380 -5,608 6,625 7,501 8,468 2,235 5,338 13,188 4,617 6,776 11,063 6,472 6,337 3,755 0,585 -11,775 -2,808 7,465 9,844 9,502 10,777 3,750 3,999 6,775 -4,401 3,317 9,328 9,459 6,339 9,006 7,899 4,791 1,538 1,089 13,747 7,936 1,613 10,266 3,743 7,843 6,672 11,679 8,568 5,332 5,329 -3,536 0,647 11,874
-0,515 4,590 1,674 -9,781 7,341 6,341 -8,457 -8,144 -9,326 4,975 4,814 -0,754 2,054 -0,841 -8,297 -7,524 5,658 6,425 7,929 1,945 5,482 15,679 4,722 6,055 10,381 5,944 6,304 4,042 0,945 -11,664 -3,985 7,469 9,479 9,026 10,429 3,664 4,135 6,793 -3,857 2,500 9,063 9,090 5,948 8,913 8,158 4,870 1,124 1,281 13,892 6,429 0,085 10,599 3,716 8,045 6,888 12,167 8,859 5,462 5,408 -3,221 3,305 11,697
-2,460 3,588 0,834 -12,366 6,441 5,495 -10,929 -10,599 -12,180 3,209 3,414 -2,011 1,329 -1,315 -10,750 -9,978 4,229 4,943 7,012 1,228 5,155 15,565 3,932 4,854 9,315 5,065 5,883 3,858 0,618 -11,802 -4,951 7,005 8,762 8,271 9,805 3,270 3,852 6,417 -3,205 1,546 8,502 8,457 5,355 8,487 8,174 4,679 0,524 1,318 13,624 4,789 -1,935 10,540 3,036 8,044 6,918 12,060 8,644 5,235 4,730 -3,306 5,069 11,053
-5,033 2,046 -0,400 -15,995 4,820 3,734 -14,247 -13,863 -15,431 1,107 1,678 -4,135 -0,087 -2,188 -13,984 -13,193 2,372 3,157 5,728 0,047 4,300 10,901 1,688 2,971 7,842 3,889 5,060 3,169 -0,509 -12,071 -5,930 5,820 7,617 7,223 8,936 2,573 3,093 5,606 -2,512 0,405 7,617 7,592 4,582 7,807 8,027 4,282 -0,215 1,176 12,975 3,226 -4,550 10,208 1,780 7,936 6,802 11,478 8,049 4,725 2,797 -3,820 5,590 9,853
-7,912 0,199 -1,742 -20,259 2,835 1,319 -18,132 -17,668 -18,743 -0,973 -0,043 -6,823 -1,906 -3,238 -17,733 -16,892 0,414 1,411 4,344 -1,335 3,147 2,256 -1,697 0,670 6,231 2,693 4,083 2,242 -2,078 -12,310 -7,013 4,174 6,335 6,132 8,071 1,810 2,115 4,600 -1,909 -0,757 6,700 6,801 3,876 7,189 7,981 3,951 -0,901 0,938 12,317 2,104 -7,461 9,955 0,262 7,971 6,668 10,904 7,467 4,202 -0,167 -4,609 5,085 8,397
-10,268 -1,324 -2,624 -24,023 1,288 -0,880 -21,552 -21,004 -21,340 -2,366 -1,107 -9,162 -3,442 -4,060 -21,012 -20,104 -0,966 0,333 3,446 -2,310 2,257 -6,933 -4,857 -1,163 5,153 2,045 3,516 1,667 -3,304 -12,299 -7,788 2,956 5,645 5,620 7,765 1,519 1,563 3,976 -1,311 -1,412 6,420 6,719 3,806 7,236 8,557 4,219 -1,077 0,967 12,318 2,005 -9,834 10,378 -0,992 8,623 6,867 11,040 7,503 4,174 -3,015 -5,268 4,042 7,338
-11,143 -1,779 -2,511 -25,970 0,983 -1,905 -23,293 -22,669 -22,341 -2,408 -0,900 -10,122 -3,978 -4,224 -22,656 -21,674 -1,077 0,537 3,637 -2,257 2,219 -13,012 -6,338 -1,562 5,313 2,519 3,952 2,043 -3,459 -11,779 -7,635 3,063 6,261 6,342 8,609 2,291 2,133 4,339 -0,396 -0,963 7,401 7,933 4,974 8,547 10,276 5,634 -0,221 1,771 13,535 3,416 -10,719 12,025 -1,539 10,371 7,860 12,415 8,672 5,163 -4,475 -5,351 2,804 7,231
-10,001 -0,713 -1,230 -25,372 2,219 -1,298 -22,732 -22,045 -21,268 -0,797 0,800 -9,231 -3,219 -3,571 -22,054 -20,998 0,402 2,293 5,198 -0,887 3,283 -14,716 -5,589 -0,099 7,033 4,377 5,692 3,653 -2,282 -10,597 -6,234 4,803 8,436 8,581 10,902 4,446 4,171 5,980 1,117 0,860 9,846 10,640 7,672 11,391 13,351 8,447 1,958 3,686 16,094 6,431 -9,613 15,119 -1,222 13,427 9,962 15,144 11,155 7,436 -4,014 -4,666 1,344 8,153
-7,006 1,804 0,983 -22,504 4,688 0,751 -20,112 -19,386 -18,311 2,284 3,749 -6,841 -1,411 -2,315 -19,434 -18,313 3,331 5,451 8,005 1,675 5,260 -13,071 -3,014 2,998 10,170 7,485 8,659 6,378 -0,024 -8,858 -3,752 7,872 11,934 12,170 14,533 7,884 7,519 8,750 3,175 3,858 13,503 14,612 11,766 15,611 17,617 12,490 5,337 6,635 19,697 10,733 -6,700 19,496 -0,099 17,637 13,155 18,953 14,746 10,871 -1,922 -3,376 -0,614 9,763
-2,880 5,254 3,693 -18,386 7,738 3,660 -16,252 -15,513 -14,191 6,295 7,422 -3,839 0,870 -0,887 -15,591 -14,421 7,265 9,567 11,665 5,002 7,689 -9,752 0,593 7,119 14,282 11,460 12,498 9,819 2,779 -6,895 -0,701 11,678 16,245 16,641 19,071 12,133 11,653 12,172 5,393 7,474 17,847 19,373 16,792 20,729 22,640 17,271 9,429 10,173 23,808 15,758 -2,682 24,712 1,634 22,548 17,085 23,326 18,965 15,008 1,111 -1,875 -3,200 11,602
1,508 8,959 6,476 -14,132 10,707 6,833 -12,022 -11,284 -9,767 10,570 11,238 -1,112 3,053 0,356 -11,387 -10,185 11,640 14,065 15,681 8,554 10,100 -5,960 4,529 11,597 18,828 15,827 16,708 13,473 5,573 -5,047 2,346 15,651 20,808 21,425 23,935 16,542 15,915 15,658 7,292 11,074 22,293 24,361 22,137 26,116 27,855 22,171 13,592 13,722 27,872 20,877 1,624 30,168 3,654 27,560 21,208 27,671 23,228 19,210 4,436 -0,528 -6,164 13,291
5,435 12,296 8,972 -10,495 13,117 9,835 -8,067 -7,337 -5,774 14,438 14,639 0,852 4,818 1,332 -7,470 -6,252 15,831 18,277 19,467 11,791 12,159 -2,279 8,277 15,815 23,199 20,006 20,676 16,799 7,939 -3,509 4,943 19,298 25,030 25,891 28,457 20,426 19,652 18,631 8,506 14,104 26,252 28,933 27,097 31,064 32,582 26,516 17,168 16,708 31,361 25,434 5,544 35,140 5,609 31,993 24,869 31,374 26,920 22,793 7,591 0,531 -9,006 14,542
8,323 14,719 10,808 -7,909 14,672 12,319 -4,877 -4,177 -2,826 17,214 17,048 1,972 6,079 2,191 -4,338 -3,116 19,115 21,441 22,326 14,168 13,627 1,003 11,338 19,134 26,662 23,238 23,664 19,205 9,565 -2,422 6,719 22,074 28,206 29,294 31,849 23,097 22,224 20,554 8,813 16,032 29,068 32,315 30,863 34,770 36,014 29,571 19,527 18,580 33,688 28,703 8,528 38,800 7,199 35,105 27,325 33,795 29,402 25,084 10,178 1,330 -11,196 15,102
9,704 15,767 11,598 -6,685 15,169 13,936 -2,896 -2,263 -1,450 18,286 17,936 2,316 6,806 3,055 -2,440 -1,219 20,789 22,837 23,586 15,198 14,290 3,585 13,170 20,923 28,466 24,745 24,970 20,159 10,189 -2,078 7,300 23,376 29,632 30,884 33,344 23,978 23,095 21,013 8,128 16,363 30,109 33,771 32,684 36,499 37,433 30,691 20,163 18,896 34,294 30,046 10,117 40,422 8,169 36,258 27,933 34,418 30,150 25,566 11,785 1,863 -12,351 14,767
9,412 15,277 11,168 -6,932 14,581 14,483 -2,371 -1,839 -1,863 17,438 17,132 1,976 6,982 3,888 -2,013 -0,791 20,542 22,179 22,975 14,700 14,059 5,193 13,463 20,875 28,244 24,178 24,319 19,475 9,705 -2,894 6,492 22,893 29,010 30,338 32,631 22,899 22,108 19,939 6,585 14,915 29,135 33,034 32,276 35,984 36,614 29,685 18,948 17,578 33,009 29,278 10,127 39,782 8,390 35,271 26,482 33,157 29,054 24,150 12,186 2,046 -12,408 13,521
7,867 13,650 9,848 -8,290 13,282 14,164 -3,045 -2,627 -3,659 15,184 15,144 1,235 6,790 4,651 -2,787 -1,566 18,815 19,980 20,978 13,086 13,197 5,864 12,521 19,375 26,422 22,008 22,189 17,582 8,379 -4,932 4,597 21,001 26,826 28,143 30,228 20,368 19,754 17,788 4,627 12,144 26,637 30,650 30,143 33,745 34,112 27,080 16,352 15,106 30,353 26,941 8,930 37,431 8,058 32,676 23,459 30,567 26,629 21,373 11,653 1,926 -11,664 11,683
6,009 11,790 8,434 -9,923 12,036 13,578 -4,168 -3,853 -5,858 12,653 13,041 0,627 6,664 5,469 -3,996 -2,790 16,688 17,420 18,707 11,282 12,313 5,980 11,199 17,421 24,127 19,408 19,680 15,412 6,836 -7,461 2,414 18,692 24,212 25,449 27,324 17,438 17,041 15,408 2,879 9,059 23,714 27,811 27,424 30,943 31,085 23,968 13,318 12,381 27,383 24,142 7,387 34,531 7,704 29,575 19,918 27,678 23,868 18,260 10,887 1,799 -10,642 9,842
4,791 10,597 7,719 -10,955 11,563 13,367 -4,934 -4,700 -7,418 10,977 11,858 0,649 7,026 6,533 -4,823 -3,650 15,251 15,683 17,255 10,196 11,993 5,934 10,337 16,056 22,533 17,579 17,891 13,887 5,723 -9,301 0,805 16,982 22,306 23,429 25,110 15,151 14,962 13,603 1,829 6,692 21,474 25,714 25,289 28,753 28,693 21,439 10,798 10,253 25,116 21,979 6,395 32,245 7,864 27,079 16,957 25,456 21,730 15,826 10,536 2,007 -9,928 8,551
4,671 10,454 8,027 -10,963 12,094 13,841 -4,918 -4,752 -7,767 10,697 12,027 1,396 7,976 7,889 -4,840 -3,707 15,017 15,320 17,078 10,219 12,432 5,856 10,274 15,788 22,209 17,085 17,327 13,414 5,353 -9,702 0,205 16,340 21,642 22,658 24,151 13,984 13,953 12,741 1,550 5,545 20,447 24,919 24,320 27,738 27,494 20,028 9,277 9,086 23,987 20,983 6,410 31,127 8,742 25,716 15,154 24,291 20,607 14,536 10,819 2,671 -9,944 8,017
5,494 11,144 9,128 -10,077 13,340 14,867 -4,173 -4,081 -6,961 11,638 13,279 2,569 9,258 9,331 -4,106 -3,013 15,810 16,130 17,904 11,120 13,390 5,678 10,818 16,470 22,968 17,712 17,773 13,798 5,627 -8,810 0,500 16,598 22,046 22,977 24,253 13,733 13,801 12,666 1,706 5,490 20,468 25,213 24,367 27,705 27,301 19,572 8,644 8,683 23,775 20,980 7,319 30,973 10,129 25,284 14,399 23,930 20,242 14,187 11,515 3,618 -10,758 8,090
6,826 12,196 10,528 -8,662 14,832 16,069 -3,005 -2,996 -5,426 13,236 15,021 3,813 10,500 10,497 -2,933 -1,874 17,111 17,540 19,140 12,377 14,457 5,403 11,592 17,633 24,235 18,871 18,683 14,572 6,253 -7,327 1,313 17,309 23,014 23,852 24,874 13,909 14,023 12,991 1,850 6,128 21,074 26,023 24,929 28,119 27,584 19,584 8,511 8,614 24,023 21,473 8,718 31,229 11,620 25,261 14,243 23,900 20,160 14,281 12,268 4,527 -12,095 8,533
8,330 13,279 11,845 -6,981 16,265 17,153 -1,689 -1,753 -3,595 14,998 16,794 4,959 11,470 11,103 -1,598 -0,579 18,497 19,082 20,371 13,595 15,363 5,278 12,392 18,905 25,550 20,103 19,654 15,403 7,014 -5,921 2,360 18,163 24,165 24,860 25,640 14,202 14,334 13,452 1,772 7,172 21,937 26,934 25,620 28,612 27,971 19,725 8,602 8,611 24,482 22,101 10,261 31,525 12,904 25,316 14,324 23,967 20,114 14,487 12,909 5,158 -13,523 9,239
9,819 14,294 12,926 -5,233 17,525 17,980 -0,420 -0,520 -1,786 16,658 18,389 5,955 12,125 11,109 -0,301 0,658 19,769 20,544 21,477 14,637 16,057 5,617 13,207 20,106 26,725 21,234 20,555 16,198 7,840 -5,004 3,483 19,046 25,323 25,826 26,446 14,568 14,717 13,990 1,534 8,454 22,906 27,799 26,293 29,093 28,354 19,916 8,823 8,634 25,103 22,717 11,726 31,784 13,855 25,391 14,473 24,122 20,079 14,681 13,449 5,449 -14,650 10,163
11,118 15,193 13,679 -3,672 18,506 18,417 0,602 0,523 -0,257 18,029 19,659 6,713 12,467 10,632 0,749 1,626 20,785 21,772 22,402 15,441 16,544 6,495 13,993 21,100 27,658 22,172 21,335 16,920 8,672 -4,816 4,538 19,875 26,341 26,669 27,236 15,015 15,192 14,585 1,249 9,786 23,844 28,538 26,880 29,542 28,689 20,151 9,122 8,690 25,802 23,218 12,898 32,005 14,396 25,478 14,586 24,330 20,026 14,781 13,858 5,416 -15,266 11,165
12,057 15,867 13,955 -2,480 19,047 18,293 1,218 1,217 0,806 18,901 20,391 7,151 12,450 9,752 1,389 2,177 21,354 22,544 22,990 15,877 16,743 7,701 14,601 21,738 28,200 22,753 21,872 17,440 9,370 -5,384 5,444 20,548 27,066 27,292 27,892 15,497 15,693 15,144 0,919 11,029 24,639 29,078 27,332 29,919 28,888 20,394 9,459 8,746 26,476 23,543 13,584 32,164 14,394 25,525 14,594 24,547 19,947 14,758 13,995 5,040 -15,259 12,076
12,496 16,150 13,574 -1,700 18,979 17,482 1,335 1,452 1,264 19,048 20,349 7,220 11,958 8,423 1,524 2,242 21,270 22,592 22,988 15,739 16,465 8,877 14,842 21,881 28,162 22,759 21,959 17,539 9,686 -6,469 6,179 20,950 27,377 27,579 28,238 15,883 16,055 15,488 0,461 12,147 25,257 29,373 27,609 30,150 28,836 20,559 9,787 8,744 27,109 23,719 13,642 32,243 13,668 25,479 14,500 24,814 19,940 14,690 13,689 4,223 -14,427 12,833
12,210 15,805 12,381 -1,500 18,119 15,928 0,787 1,036 0,889 18,228 19,320 6,743 10,800 6,545 0,994 1,683 20,333 21,661 22,111 14,775 15,457 9,643 14,519 21,365 27,349 21,973 21,334 16,943 9,272 -7,863 6,621 20,914 27,134 27,350 28,017 15,895 15,986 15,343 -0,162 13,037 25,610 29,323 27,588 30,049 28,376 20,459 9,952 8,598 27,642 23,726 12,897 32,148 12,051 25,241 14,300 25,092 20,029 14,590 12,770 2,804 -12,594 13,386
10,920 14,598 10,345 -2,261 16,336 13,702 -0,635 -0,273 -0,585 16,279 17,202 5,403 8,821 4,142 -0,402 0,301 18,447 19,622 20,194 12,823 13,546 9,828 13,515 20,077 25,653 20,280 19,809 15,451 7,815 -9,588 6,555 20,301 26,226 26,443 26,998 15,210 15,176 14,454 -0,824 13,512 25,543 28,790 27,081 29,381 27,367 19,864 9,718 8,232 27,919 23,462 11,184 31,691 9,556 24,678 13,958 25,194 20,056 14,327 11,172 0,718 -9,929 13,611
8,529 12,467 7,613 -4,218 13,709 11,057 -2,942 -2,508 -3,221 13,258 14,111 3,067 6,089 1,426 -2,664 -1,923 15,705 16,567 17,305 9,950 10,812 9,724 11,939 18,101 23,149 17,738 17,403 13,075 5,259 -11,624 5,858 19,149 24,686 24,835 25,129 13,674 13,508 12,754 -1,360 13,456 24,963 27,716 25,973 28,007 25,773 18,655 8,931 7,601 27,812 22,849 8,540 30,708 6,477 23,713 13,430 24,955 19,829 13,756 9,066 -1,888 -6,864 13,428
5,252 9,570 4,458 -7,212 10,534 8,340 -5,867 -5,415 -6,800 9,442 10,358 -0,023 2,910 -1,338 -5,533 -4,755 12,361 12,771 13,707 6,463 7,584 10,036 10,130 15,688 20,071 14,549 14,332 10,063 1,921 -13,741 4,557 17,643 22,676 22,635 22,539 11,384 11,133 10,420 -1,811 12,853 23,864 26,123 24,238 25,923 23,651 16,865 7,597 6,639 27,245 21,836 5,259 29,110 3,220 22,338 12,611 24,281 19,186 12,780 6,835 -4,726 -3,834 12,892
1,584 6,298 1,261 -10,770 7,246 5,951 -8,944 -8,529 -10,856 5,324 6,430 -3,377 -0,282 -3,897 -8,554 -7,771 8,833 8,698 9,852 2,874 4,367 11,495 8,574 13,229 16,827 11,104 11,026 6,898 -1,544 -15,662 2,877 16,093 20,485 20,117 19,548 8,690 8,454 7,869 -2,360 11,823 22,360 24,155 21,994 23,325 21,206 14,710 5,917 5,330 26,215 20,429 1,847 26,962 0,159 20,670 11,422 23,135 18,039 11,401 4,987 -7,428 -1,288 12,139
-1,816 3,236 -1,454 -14,286 4,353 4,354 -11,597 -11,270 -14,717 1,605 2,973 -6,462 -2,997 -5,925 -11,159 -10,417 5,725 5,023 6,408 -0,156 1,753 14,211 7,738 11,231 14,011 8,019 8,120 4,238 -4,346 -17,117 1,334 14,922 18,570 17,768 16,712 6,161 6,060 5,683 -3,003 10,743 20,806 22,187 19,613 20,680 18,861 12,626 4,295 3,892 24,942 18,843 -1,067 24,615 -2,301 19,047 10,041 21,671 16,567 9,874 4,036 -9,528 0,309 11,353
-4,384 0,931 -3,190 -17,217 2,266 3,872 -13,382 -13,164 -17,690 -1,035 0,568 -8,904 -4,836 -7,075 -12,881 -12,224 3,614 2,407 4,020 -2,085 0,181 16,998 7,701 10,074 12,152 5,885 6,192 2,611 -5,958 -17,838 0,556 14,424 17,349 16,085 14,617 4,333 4,440 4,331 -3,504 10,126 19,662 20,670 17,598 18,528 17,071 11,059 3,146 2,734 23,810 17,435 -2,993 22,571 -3,754 17,815 8,909 20,242 15,201 8,649 4,146 -10,655 0,745 10,692
-5,932 -0,406 -3,825 -19,289 1,044 4,357 -14,259 -14,128 -19,389 -2,330 -0,625 -10,628 -5,747 -7,279 -13,661 -13,112 2,663 1,088 2,886 -2,845 -0,359 17,483 7,873 9,663 11,318 4,845 5,369 2,043 -6,433 -17,791 0,767 14,418 16,827 15,177 13,478 3,341 3,626 3,840 -3,738 10,226 19,093 19,736 16,192 17,076 15,931 10,067 2,540 2,107 23,041 16,377 -3,874 21,082 -4,098 16,907 8,445 19,090 14,246 8,035 4,821 -10,851 0,228 10,155
-6,649 -0,964 -3,734 -20,499 0,380 5,217 -14,557 -14,452 -19,904 -2,573 -0,968 -11,763 -6,063 -6,936 -13,818 -13,374 2,525 0,761 2,639 -2,882 -0,330 13,851 7,425 9,509 11,069 4,520 5,239 2,034 -6,326 -17,320 1,583 14,355 16,583 14,707 13,007 2,869 3,197 3,782 -3,890 10,832 18,842 19,098 15,230 16,110 15,115 9,287 2,146 1,903 22,511 15,516 -4,056 19,985 -3,746 15,862 8,730 18,159 13,633 7,961 5,232 -10,607 -0,768 9,606
-6,800 -1,058 -3,468 -20,915 -0,040 5,944 -14,559 -14,419 -19,630 -2,293 -0,972 -12,402 -6,184 -6,623 -13,664 -13,303 2,716 0,922 2,737 -2,755 -0,256 6,937 6,194 9,274 10,928 4,414 5,262 2,007 -6,222 -16,876 2,461 13,930 16,261 14,303 12,773 2,526 2,740 3,657 -4,215 11,530 18,603 18,462 14,445 15,355 14,313 8,414 1,610 1,807 22,008 14,668 -3,891 19,047 -3,327 14,481 9,397 17,349 13,161 8,083 5,041 -10,469 -1,752 8,991
-6,516 -0,899 -3,339 -20,569 -0,283 6,489 -14,259 -14,049 -18,955 -1,856 -0,917 -12,535 -6,275 -6,644 -13,240 -12,933 2,983 1,250 2,854 -2,743 -0,348 -0,116 4,886 9,070 10,790 4,312 5,180 1,736 -6,370 -16,660 3,188 13,387 15,901 13,902 12,566 2,167 2,200 3,266 -4,781 12,077 18,369 17,863 13,813 14,792 13,579 7,552 0,895 1,583 21,524 13,926 -3,485 18,303 -3,187 13,163 9,878 16,772 12,822 8,108 4,656 -10,674 -2,352 8,474
-5,912 -0,635 -3,377 -19,593 -0,300 7,005 -13,586 -13,301 -18,145 -1,414 -0,872 -12,208 -6,294 -6,944 -12,497 -12,224 3,271 1,592 2,888 -2,859 -0,540 -4,649 4,246 9,139 10,765 4,208 4,985 1,300 -6,708 -16,592 3,831 13,110 15,716 13,622 12,378 1,844 1,751 2,721 -5,504 12,496 18,325 17,525 13,500 14,558 13,150 6,992 0,214 1,212 21,232 13,576 -2,859 17,977 -3,275 12,433 9,892 16,654 12,777 8,004 4,573 -11,145 -2,328 8,279
-5,195 -0,413 -3,530 -18,296 -0,111 7,469 -12,665 -12,322 -17,376 -1,053 -0,881 -11,559 -6,184 -7,321 -11,565 -11,308 3,498 1,803 2,795 -3,054 -0,714 -6,272 4,354 9,466 10,852 4,066 4,711 0,837 -7,054 -16,501 4,451 13,183 15,760 13,489 12,220 1,643 1,529 2,239 -6,276 12,894 18,568 17,565 13,607 14,706 13,146 6,892 -0,195 0,840 21,257 13,814 -2,160 18,197 -3,417 12,460 9,615 17,068 13,115 7,926 4,788 -11,671 -1,670 8,439
-4,555 -0,340 -3,793 -16,973 0,174 7,665 -11,736 -11,359 -16,726 -0,866 -1,006 -10,715 -5,948 -7,625 -10,680 -10,408 3,515 1,742 2,536 -3,305 -0,822 -6,081 4,763 9,796 10,885 3,777 4,363 0,432 -7,256 -16,325 4,942 13,375 15,873 13,383 12,052 1,614 1,557 1,986 -7,021 13,239 19,008 17,882 14,057 15,136 13,488 7,227 -0,199 0,618 21,527 14,569 -1,582 18,858 -3,582 13,083 9,358 17,797 13,714 7,989 4,919 -12,052 -0,647 8,759
-4,065 -0,434 -4,168 -15,755 0,433 7,407 -10,944 -10,560 -16,153 -0,897 -1,273 -9,723 -5,619 -7,779 -9,990 -9,644 3,238 1,370 2,132 -3,580 -0,855 -5,178 5,022 9,890 10,695 3,272 3,967 0,138 -7,235 -16,207 5,105 13,399 15,863 13,191 11,830 1,787 1,804 2,027 -7,664 13,354 19,469 18,297 14,680 15,695 14,019 7,879 0,199 0,629 21,854 15,599 -1,223 19,729 -3,894 14,043 9,308 18,506 14,346 8,206 4,670 -12,169 0,399 8,984
-3,660 -0,580 -4,541 -14,651 0,647 6,745 -10,284 -9,917 -15,553 -1,044 -1,574 -8,569 -5,157 -7,670 -9,484 -9,005 2,790 0,847 1,755 -3,735 -0,719 -4,054 5,023 9,750 10,322 2,688 3,684 0,093 -6,915 -16,400 4,858 13,196 15,738 12,987 11,649 2,247 2,313 2,428 -8,012 13,157 19,904 18,785 15,434 16,378 14,719 8,806 0,965 0,975 22,195 16,768 -1,033 20,713 -4,425 15,220 9,552 19,095 14,950 8,619 4,103 -11,968 1,249 9,023
-3,167 -0,540 -4,628 -13,600 0,982 5,979 -9,663 -9,319 -14,794 -1,023 -1,615 -7,209 -4,425 -7,116 -9,041 -8,405 2,509 0,536 1,741 -3,491 -0,199 -2,760 4,976 9,631 10,064 2,398 3,843 0,555 -6,140 -16,972 4,336 12,995 15,755 13,050 11,791 3,168 3,254 3,340 -7,737 12,838 20,462 19,544 16,489 17,393 15,784 10,135 2,140 1,820 22,752 18,181 -0,821 21,974 -5,021 16,718 10,173 19,825 15,720 9,370 3,541 -11,375 1,739 8,977
-2,405 -0,091 -4,163 -12,539 1,669 5,424 -9,026 -8,697 -13,791 -0,536 -1,088 -5,676 -3,338 -6,065 -8,574 -7,807 2,713 0,783 2,392 -2,614 0,869 -1,307 5,094 9,786 10,250 2,761 4,735 1,719 -4,792 -17,552 3,705 13,034 16,157 13,626 12,518 4,671 4,768 4,855 -6,656 12,638 21,274 20,761 18,013 18,959 17,422 11,994 3,730 3,205 23,700 19,951 -0,376 23,705 -5,344 18,664 11,188 20,960 16,828 10,543 3,235 -10,326 1,568 8,985
-1,316 0,811 -3,126 -11,472 2,794 5,186 -8,422 -8,097 -12,580 0,522 0,108 -4,169 -2,014 -4,762 -8,111 -7,277 3,495 1,704 3,768 -1,114 2,414 0,124 5,369 10,253 10,988 3,875 6,398 3,528 -2,970 -17,524 2,978 13,321 16,956 14,731 13,874 6,680 6,792 6,847 -4,966 12,555 22,248 22,365 19,956 21,071 19,627 14,296 5,597 4,914 24,922 21,948 0,405 25,864 -5,056 20,979 12,489 22,402 18,178 12,020 3,203 -8,916 0,288 9,074
0,067 2,059 -1,709 -10,391 4,270 5,218 -7,883 -7,556 -11,235 2,054 1,836 -2,914 -0,663 -3,548 -7,673 -6,853 4,766 3,195 5,691 0,799 4,191 1,285 5,667 10,903 12,178 5,597 8,632 5,729 -0,930 -16,535 2,083 13,690 17,977 16,200 15,722 8,980 9,109 9,039 -3,119 12,388 23,153 24,074 22,087 23,521 22,177 16,765 7,520 6,610 26,097 23,863 1,519 28,191 -3,967 23,386 13,892 23,791 19,499 13,562 3,343 -7,372 -2,338 9,178
1,654 3,497 -0,142 -9,252 5,935 5,408 -7,383 -7,055 -9,818 3,854 3,832 -1,946 0,617 -2,549 -7,235 -6,501 6,353 5,040 7,892 2,876 5,964 1,927 5,832 11,556 13,643 7,675 11,130 8,031 1,117 -14,798 0,985 13,932 18,981 17,799 17,838 11,316 11,441 11,146 -1,562 11,950 23,764 25,560 24,130 26,014 24,721 19,049 9,256 8,005 26,935 25,380 2,872 30,354 -2,142 25,493 15,169 24,791 20,538 14,904 3,499 -5,893 -5,980 9,214
3,273 4,949 1,403 -8,092 7,606 5,613 -6,946 -6,617 -8,420 5,672 5,806 -1,132 1,846 -1,655 -6,828 -6,219 8,045 6,987 10,104 4,898 7,590 1,806 5,711 12,039 15,182 9,835 13,577 10,188 3,049 -12,854 -0,296 13,884 19,756 19,307 19,975 13,428 13,498 12,938 -0,562 11,168 23,921 26,577 25,848 28,263 26,893 20,822 10,558 8,915 27,260 26,286 4,260 32,067 0,093 26,902 16,070 25,247 21,130 15,796 3,460 -4,551 -9,877 9,121
4,739 6,280 2,834 -7,031 9,132 5,734 -6,610 -6,283 -7,130 7,321 7,554 -0,349 3,050 -0,694 -6,498 -6,021 9,677 8,844 12,128 6,692 9,018 0,833 5,249 12,278 16,641 11,862 15,732 12,026 4,774 -11,120 -1,673 13,512 20,217 20,599 21,940 15,107 15,057 14,279 -0,098 10,091 23,604 27,059 27,134 30,093 28,445 21,893 11,277 9,306 27,050 26,547 5,479 33,186 2,326 27,396 16,433 25,215 21,255 16,108 3,101 -3,325 -13,327 8,909
5,943 7,453 4,113 -6,171 10,417 5,775 -6,345 -6,024 -5,982 8,723 8,994 0,419 4,195 0,404 -6,212 -5,861 11,186 10,513 13,841 8,123 10,229 -0,768 4,563 12,356 17,951 13,630 17,440 13,435 6,139 -9,684 -3,002 12,929 20,429 21,670 23,621 16,222 16,005 15,108 0,112 8,848 22,946 27,130 28,019 31,479 29,303 22,241 11,410 9,299 26,434 26,313 6,427 33,749 4,231 27,033 16,251 24,918 21,055 15,914 2,488 -2,187 -15,883 8,702
6,815 8,449 5,165 -5,561 11,373 5,761 -6,099 -5,787 -5,012 9,818 10,068 1,072 5,149 1,511 -5,924 -5,686 12,506 11,895 15,114 9,039 11,149 -2,533 3,855 12,397 19,054 15,021 18,551 14,282 6,893 -8,452 -4,150 12,292 20,508 22,519 24,909 16,677 16,288 15,367 0,373 7,574 22,118 26,960 28,571 32,434 29,488 21,924 11,034 9,057 25,606 25,782 7,042 33,871 5,599 26,039 15,620 24,588 20,731 15,402 1,798 -1,218 -17,186 8,682
7,298 9,199 5,837 -5,186 11,900 5,684 -5,845 -5,532 -4,294 10,502 10,666 1,477 5,736 2,351 -5,621 -5,465 13,478 12,826 15,772 9,287 11,633 -3,936 3,292 12,447 19,835 15,873 18,913 14,413 6,813 -7,414 -5,035 11,720 20,505 23,082 25,658 16,408 15,899 15,022 0,762 6,367 21,217 26,637 28,784 32,906 29,043 21,036 10,242 8,672 24,686 25,060 7,278 33,617 6,315 24,653 14,651 24,283 20,374 14,738 1,206 -0,609 -16,989 8,958
7,391 9,600 5,981 -4,999 11,966 5,537 -5,555 -5,210 -3,868 10,690 10,705 1,572 5,868 2,702 -5,291 -5,163 13,927 13,149 15,689 8,831 11,593 -4,539 2,979 12,493 20,172 16,047 18,465 13,782 5,929 -6,827 -5,590 11,272 20,399 23,257 25,741 15,453 14,925 14,180 1,104 5,309 20,253 26,137 28,587 32,806 28,036 19,712 9,173 8,160 23,652 24,138 7,166 32,971 6,402 23,065 13,464 23,835 19,897 13,997 0,839 -0,522 -15,469 9,471
7,084 9,533 5,551 -5,057 11,613 5,314 -5,249 -4,848 -3,788 10,349 10,180 1,353 5,584 2,530 -4,967 -4,804 13,751 12,789 14,864 7,787 11,067 -4,147 2,947 12,495 19,991 15,504 17,280 12,503 4,525 -7,112 -5,769 10,965 20,129 22,959 25,106 13,948 13,522 13,043 1,132 4,457 19,188 25,376 27,899 32,053 26,557 18,102 7,974 7,492 22,382 22,942 6,766 31,880 6,022 21,406 12,182 22,962 19,105 13,163 0,735 -0,990 -13,213 10,040
6,264 8,856 4,583 -5,608 10,845 4,977 -5,093 -4,641 -4,199 9,441 9,106 0,757 4,927 1,924 -4,812 -4,574 12,923 11,735 13,379 6,316 10,130 -2,922 3,118 12,373 19,258 14,287 15,484 10,734 2,866 -8,395 -5,584 10,766 19,632 22,141 23,770 12,024 11,803 11,719 0,648 3,798 17,973 24,261 26,678 30,609 24,682 16,284 6,697 6,603 20,779 21,406 6,031 30,319 5,316 19,718 10,884 21,471 17,848 12,167 0,830 -1,932 -10,775 10,494
4,789 7,477 3,171 -6,911 9,586 4,467 -5,310 -4,839 -5,245 7,939 7,499 -0,342 3,869 0,969 -5,040 -4,729 11,490 10,039 11,362 4,528 8,833 -1,306 3,328 12,040 17,995 12,511 13,218 8,608 1,057 -10,269 -5,102 10,594 18,875 20,837 21,825 9,764 9,806 10,172 -0,412 3,257 16,598 22,780 24,968 28,529 22,485 14,275 5,292 5,421 18,888 19,548 4,846 28,352 4,279 17,979 9,570 19,432 16,141 10,949 0,994 -3,226 -8,345 10,758
2,704 5,500 1,481 -8,963 7,797 3,797 -5,952 -5,503 -6,846 5,953 5,474 -1,999 2,404 -0,264 -5,701 -5,345 9,645 7,905 9,044 2,553 7,264 0,213 3,452 11,493 16,359 10,393 10,703 6,320 -0,817 -12,176 -4,398 10,375 17,906 19,206 19,501 7,311 7,624 8,420 -1,943 2,748 15,139 21,051 22,952 26,037 20,126 12,159 3,764 3,977 16,917 17,508 3,219 26,159 2,877 16,215 8,243 17,179 14,190 9,544 1,128 -4,711 -5,916 10,829
0,423 3,353 -0,191 -11,351 5,686 3,155 -6,757 -6,358 -8,571 3,885 3,383 -4,008 0,734 -1,584 -6,530 -6,164 7,803 5,776 6,839 0,701 5,683 1,357 3,533 10,909 14,711 8,333 8,366 4,244 -2,478 -13,793 -3,470 10,160 16,925 17,593 17,251 5,032 5,564 6,736 -3,627 2,255 13,787 19,355 20,987 23,571 17,944 10,228 2,345 2,523 15,158 15,556 1,477 24,055 1,290 14,622 7,043 15,139 12,333 8,148 1,282 -6,126 -3,745 10,705
-1,374 1,664 -1,429 -13,377 3,750 2,897 -7,253 -6,920 -9,795 2,366 1,790 -5,884 -0,712 -2,644 -7,040 -6,710 6,525 4,262 5,305 -0,548 4,514 2,139 3,789 10,624 13,549 6,869 6,778 2,876 -3,502 -14,918 -2,255 10,157 16,256 16,452 15,664 3,465 4,114 5,585 -4,994 1,890 12,817 18,058 19,514 21,682 16,402 8,927 1,443 1,470 13,886 14,031 0,213 22,435 -0,044 13,555 6,268 13,679 10,942 7,095 1,680 -7,115 -2,476 10,418
-2,169 0,891 -1,917 -14,488 2,482 3,302 -7,107 -6,841 -10,116 1,873 1,138 -7,171 -1,576 -3,183 -6,884 -6,636 6,211 3,802 4,838 -0,866 4,071 2,739 4,408 10,889 13,221 6,389 6,322 2,531 -3,629 -15,385 -0,756 10,557 16,134 16,079 15,125 2,973 3,631 5,273 -5,708 1,831 12,420 17,394 18,789 20,721 15,808 8,551 1,322 1,084 13,214 13,138 -0,114 21,565 -0,781 13,261 6,124 12,965 10,242 6,645 2,517 -7,453 -2,611 10,080
-1,952 1,036 -1,674 -14,614 2,022 4,327 -6,370 -6,140 -9,625 2,374 1,426 -7,769 -1,853 -3,275 -6,105 -5,960 6,814 4,367 5,384 -0,358 4,308 3,371 5,379 11,655 13,673 6,864 6,900 3,093 -2,993 -15,211 0,878 11,341 16,513 16,398 15,551 3,466 4,063 5,711 -5,778 2,152 12,539 17,299 18,714 20,620 16,082 9,003 1,871 1,300 13,022 12,794 0,481 21,390 -0,975 13,649 6,525 12,897 10,186 6,776 3,765 -7,233 -3,963 9,839
-1,114 1,772 -0,979 -14,089 2,185 5,695 -5,363 -5,117 -8,748 3,445 2,288 -7,892 -1,796 -3,196 -5,035 -4,978 7,939 5,570 6,525 0,567 4,917 4,286 6,552 12,648 14,559 7,936 8,050 4,141 -1,978 -14,578 2,407 12,319 17,148 17,081 16,518 4,514 5,042 6,551 -5,410 2,718 12,939 17,512 18,958 21,024 16,872 9,917 2,742 1,860 13,083 12,730 1,595 21,632 -0,920 14,395 7,211 13,236 10,549 7,270 5,241 -6,726 -5,765 9,807
-0,128 2,720 -0,137 -13,361 2,704 7,103 -4,451 -4,147 -7,952 4,610 3,310 -7,800 -1,641 -3,140 -4,066 -4,047 9,141 6,945 7,790 1,525 5,597 5,736 7,772 13,568 15,509 9,190 9,284 5,259 -0,945 -13,668 3,562 13,263 17,767 17,783 17,560 5,646 6,146 7,462 -4,803 3,245 13,359 17,775 19,187 21,538 17,806 10,919 3,598 2,520 13,201 12,687 2,759 22,000 -0,843 15,186 7,946 13,730 11,071 7,870 6,736 -6,147 -7,304 9,989
0,689 3,617 0,651 -12,755 3,388 8,344 -3,888 -3,519 -7,543 5,552 4,231 -7,619 -1,459 -3,085 -3,472 -3,441 10,106 8,153 8,873 2,326 6,206 7,934 8,942 14,217 16,283 10,309 10,314 6,210 -0,074 -12,599 4,108 13,993 18,163 18,266 18,359 6,548 7,082 8,260 -4,061 3,449 13,580 17,906 19,187 21,884 18,639 11,781 4,265 3,138 13,212 12,510 3,673 22,286 -0,772 15,859 8,604 14,138 11,519 8,377 8,073 -5,558 -8,377 10,250
1,328 4,435 1,374 -12,275 4,231 9,393 -3,647 -3,236 -7,495 6,235 5,056 -7,218 -1,091 -2,786 -3,240 -3,163 10,770 9,112 9,747 3,047 6,840 11,104 10,087 14,580 16,832 11,183 11,137 7,020 0,712 -11,382 3,995 14,464 18,286 18,465 18,863 7,204 7,829 9,010 -3,128 3,235 13,519 17,864 18,968 22,012 19,333 12,514 4,835 3,771 13,021 12,204 4,341 22,434 -0,520 16,477 9,249 14,292 11,772 8,749 9,201 -4,841 -9,242 10,438
2,032 5,372 2,201 -11,681 5,380 10,405 -3,407 -2,987 -7,451 6,903 6,028 -6,325 -0,241 -1,897 -3,051 -2,916 11,319 10,017 10,640 3,964 7,779 15,454 11,353 14,841 17,296 11,937 11,970 7,933 1,678 -9,933 3,435 14,780 18,279 18,505 19,252 7,844 8,615 9,977 -1,832 2,746 13,275 17,757 18,732 22,087 20,024 13,318 5,599 4,640 12,634 11,895 5,023 22,532 0,206 17,251 10,095 14,140 11,840 9,107 10,239 -3,755 -10,304 10,523
3,007 6,604 3,325 -10,826 6,941 11,538 -2,827 -2,438 -7,025 7,842 7,393 -4,808 1,269 -0,220 -2,561 -2,374 12,007 11,123 11,811 5,338 9,263 20,841 12,834 15,219 17,858 12,783 13,048 9,212 3,051 -8,201 2,759 15,076 18,337 18,568 19,737 8,715 9,678 11,380 -0,071 2,191 13,012 17,728 18,685 22,305 20,850 14,363 6,765 5,901 12,075 11,695 5,959 22,687 1,568 18,316 11,288 13,689 11,753 9,572 11,370 -2,130 -11,877 10,551
4,222 8,106 4,817 -9,850 8,870 12,798 -1,848 -1,525 -6,118 9,127 9,195 -2,794 3,368 2,170 -1,693 -1,471 12,953 12,511 13,362 7,225 11,326 26,283 14,361 15,770 18,592 13,829 14,464 10,942 4,860 -6,234 2,263 15,385 18,540 18,758 20,393 9,904 11,080 13,226 2,075 1,710 12,835 17,834 18,893 22,746 21,835 15,640 8,303 7,509 11,391 11,649 7,161 22,948 3,471 19,622 12,786 13,018 11,558 10,179 12,710 0,024 -14,090 10,530
5,405 9,643 6,541 -9,109 10,933 13,943 -0,809 -0,558 -4,976 10,558 11,220 -0,631 5,753 4,952 -0,759 -0,516 14,024 14,019 15,167 9,439 13,752 29,693 15,361 16,260 19,368 14,974 16,088 12,954 6,921 -4,188 2,083 15,535 18,765 19,010 21,115 11,311 12,659 15,295 4,336 1,345 12,723 17,995 19,251 23,311 22,855 16,966 9,981 9,229 10,697 11,750 8,358 23,279 5,608 20,960 14,375 12,311 11,365 10,871 14,090 2,488 -16,788 10,369
6,150 10,851 8,144 -9,018 12,743 14,427 -0,356 -0,144 -4,061 11,740 13,050 1,220 7,966 7,604 -0,371 -0,116 14,832 15,281 16,881 11,594 16,107 28,451 14,953 16,178 19,832 15,892 17,569 14,853 8,892 -2,318 2,039 15,093 18,656 19,050 21,632 12,658 14,046 17,187 6,269 1,003 12,469 17,964 19,489 23,716 23,623 18,030 11,428 10,671 10,098 11,868 9,059 23,499 7,585 21,997 15,696 11,738 11,213 11,442 14,819 4,862 -19,569 9,890
6,216 11,446 9,242 -9,700 13,994 13,740 -0,975 -0,747 -3,704 12,353 14,320 2,477 9,626 9,578 -0,997 -0,737 14,996 15,951 18,127 13,299 17,961 21,310 12,575 15,104 19,651 16,251 18,529 16,229 10,451 -0,863 1,739 13,682 17,886 18,592 21,675 13,644 14,882 18,519 7,419 0,545 11,846 17,493 19,333 23,660 23,844 18,536 12,310 11,453 9,603 11,800 8,918 23,365 9,169 22,416 16,405 11,339 11,006 11,632 14,064 6,715 -22,108 8,969
5,822 11,484 9,741 -10,722 14,737 12,012 -2,453 -2,178 -3,783 12,466 15,029 3,257 10,691 10,633 -2,431 -2,174 14,539 16,042 18,813 14,444 19,164 10,241 8,755 13,229 18,877 16,039 18,894 16,949 11,524 0,118 1,026 11,515 16,561 17,690 21,257 14,185 15,102 19,194 7,606 -0,003 10,921 16,629 18,786 23,105 23,469 18,447 12,555 11,445 9,224 11,498 8,151 22,815 10,485 22,172 16,400 11,093 10,670 11,367 11,796 7,844 -24,371 7,765
5,513 11,332 9,916 -11,344 15,363 10,058 -3,988 -3,683 -3,822 12,491 15,540 3,989 11,472 11,017 -3,903 -3,657 13,907 15,941 19,183 15,246 19,911 -0,429 4,920 11,316 17,961 15,576 18,939 17,210 12,308 0,769 0,118 9,355 15,193 16,736 20,679 14,431 14,955 19,423 7,021 -0,469 10,052 15,717 18,119 22,291 22,719 17,998 12,368 10,833 9,029 11,126 7,417 22,012 11,884 21,520 15,848 10,999 10,273 10,828 8,976 8,381 -26,443 6,697
5,695 11,338 10,124 -11,078 16,254 8,682 -4,878 -4,585 -3,439 12,787 16,208 5,107 12,367 11,249 -4,746 -4,507 13,541 16,028 19,529 15,975 20,524 -7,281 2,261 10,035 17,337 15,186 18,973 17,305 13,036 1,283 -0,750 7,841 14,224 16,084 20,225 14,571 14,741 19,484 6,066 -0,777 9,521 15,060 17,566 21,455 21,847 17,472 12,020 9,947 9,038 10,836 7,245 21,135 13,563 20,776 15,006 11,026 9,942 10,255 6,654 8,657 -28,236 6,120
6,350 11,588 10,493 -9,975 17,451 8,125 -4,995 -4,741 -2,643 13,364 17,055 6,707 13,508 11,674 -4,836 -4,591 13,536 16,349 19,900 16,674 21,150 -9,768 1,009 9,514 17,102 14,955 19,051 17,362 13,708 1,733 -1,571 7,077 13,734 15,794 19,934 14,657 14,576 19,476 5,163 -0,994 9,360 14,707 17,141 20,656 20,969 16,996 11,650 9,081 9,205 10,625 7,642 20,245 15,314 20,094 14,055 11,118 9,744 9,777 5,221 8,943 -29,374 6,085
7,145 11,964 10,934 -8,510 18,668 8,150 -4,656 -4,434 -1,768 13,966 17,828 8,434 14,665 12,260 -4,480 -4,208 13,730 16,709 20,149 17,163 21,684 -9,303 0,777 9,519 17,124 14,807 19,058 17,324 14,069 2,095 -2,423 6,875 13,608 15,757 19,692 14,608 14,384 19,287 4,655 -1,157 9,507 14,585 16,747 19,871 20,126 16,545 11,233 8,413 9,543 10,457 8,232 19,374 16,674 19,475 13,089 11,281 9,699 9,411 4,558 9,297 -29,441 6,398
7,710 12,324 11,341 -7,296 19,556 8,424 -4,263 -4,054 -1,186 14,361 18,294 9,709 15,455 12,771 -4,068 -3,747 13,979 16,958 20,192 17,270 21,932 -7,586 1,145 9,826 17,303 14,716 18,944 17,124 13,837 2,397 -3,307 7,078 13,751 15,889 19,425 14,326 14,051 18,769 4,714 -1,215 9,916 14,648 16,330 19,126 19,391 16,062 10,666 7,997 10,118 10,354 8,615 18,599 17,297 18,877 12,180 11,541 9,766 9,122 4,455 9,609 -28,443 6,800
7,893 12,603 11,686 -6,719 19,932 8,743 -4,043 -3,822 -1,032 14,520 18,421 10,124 15,657 13,043 -3,824 -3,446 14,266 17,119 20,129 17,017 21,813 -5,863 1,816 10,324 17,644 14,768 18,807 16,807 12,994 2,716 -4,153 7,581 14,103 16,158 19,191 13,840 13,589 17,960 5,245 -1,125 10,499 14,861 15,909 18,508 18,871 15,558 9,938 7,796 10,869 10,329 8,657 18,003 17,212 18,286 11,440 11,797 9,818 8,885 4,732 9,742 -26,934 7,099
7,876 12,860 12,034 -6,664 19,882 9,084 -3,936 -3,670 -1,088 14,629 18,391 9,741 15,381 13,099 -3,688 -3,265 14,687 17,371 20,206 16,659 21,451 -4,778 2,595 10,976 18,223 15,123 18,838 16,564 11,902 3,002 -4,848 8,277 14,622 16,576 19,169 13,382 13,222 17,160 5,951 -0,877 11,132 15,189 15,574 18,161 18,686 15,165 9,229 7,782 11,588 10,351 8,563 17,668 16,777 17,772 11,023 11,853 9,742 8,762 5,213 9,670 -25,657 7,257
8,019 13,252 12,494 -6,676 19,689 9,506 -3,712 -3,361 -0,971 14,945 18,482 9,006 14,973 13,107 -3,436 -2,985 15,379 17,935 20,671 16,539 21,111 -4,386 3,412 11,795 19,124 15,929 19,233 16,628 11,086 3,004 -5,265 9,089 15,306 17,193 19,564 13,281 13,250 16,753 6,579 -0,479 11,744 15,631 15,474 18,251 18,955 15,083 8,812 7,993 12,098 10,416 8,671 17,711 16,417 17,479 11,051 11,643 9,585 8,879 5,757 9,497 -25,051 7,355
8,544 13,900 13,134 -6,388 19,626 10,013 -3,258 -2,797 -0,481 15,599 18,876 8,361 14,735 13,227 -2,958 -2,486 16,407 18,906 21,615 16,847 20,983 -4,333 4,274 12,772 20,346 17,215 20,085 17,124 10,852 2,405 -5,345 9,980 16,159 18,041 20,456 13,726 13,803 16,922 7,089 0,004 12,334 16,207 15,730 18,855 19,716 15,433 8,832 8,471 12,407 10,584 9,136 18,244 16,332 17,514 11,489 11,363 9,536 9,270 6,263 9,360 -25,053 7,466
9,392 14,811 13,927 -5,797 19,811 10,529 -2,717 -2,164 0,238 16,531 19,572 7,984 14,754 13,526 -2,397 -1,908 17,698 20,190 22,916 17,528 21,078 -4,174 5,179 13,824 21,753 18,851 21,333 18,017 11,159 1,162 -5,161 10,927 17,136 19,060 21,748 14,671 14,771 17,569 7,578 0,453 12,932 16,904 16,348 19,898 20,871 16,164 9,220 9,170 12,701 10,933 9,832 19,276 16,465 17,868 12,139 11,371 9,793 9,810 6,666 9,351 -25,297 7,593
10,290 15,862 14,775 -5,204 20,213 10,974 -2,395 -1,805 0,821 17,544 20,410 7,798 14,937 13,973 -2,045 -1,555 19,073 21,577 24,343 18,392 21,288 -3,639 6,067 14,794 23,128 20,606 22,810 19,171 11,771 -0,251 -4,911 11,860 18,119 20,102 23,206 15,910 15,920 18,430 8,105 0,732 13,514 17,624 17,183 21,166 22,222 17,096 9,784 9,939 13,131 11,436 10,479 20,646 16,680 18,437 12,779 11,876 10,417 10,317 6,935 9,496 -25,466 7,705
10,941 16,833 15,544 -4,948 20,718 11,297 -2,504 -1,940 0,950 18,399 21,170 7,663 15,145 14,461 -2,109 -1,647 20,306 22,822 25,652 19,243 21,493 -2,675 6,872 15,531 24,266 22,210 24,308 20,403 12,422 -1,113 -4,777 12,666 18,958 20,990 24,567 17,198 17,039 19,242 8,612 0,748 13,963 18,204 18,005 22,407 23,550 18,014 10,327 10,588 13,640 11,926 10,838 22,063 16,905 19,066 13,259 12,745 11,268 10,665 7,096 9,734 -25,441 7,800
11,233 17,519 16,118 -5,058 21,231 11,478 -2,943 -2,451 0,600 18,937 21,680 7,607 15,322 14,845 -2,492 -2,091 21,221 23,721 26,661 19,947 21,634 -1,308 7,602 15,995 25,063 23,449 25,640 21,540 12,947 -1,064 -4,712 13,290 19,567 21,628 25,663 18,351 18,008 19,854 8,987 0,569 14,187 18,543 18,655 23,450 24,681 18,746 10,723 10,992 14,042 12,233 10,883 23,259 17,119 19,610 13,509 13,651 12,118 10,827 7,251 9,941 -25,230 7,916
11,322 17,875 16,455 -5,195 21,733 11,553 -3,351 -2,944 0,053 19,148 21,914 7,862 15,523 15,020 -2,846 -2,526 21,776 24,196 27,303 20,456 21,735 0,425 8,344 16,293 25,544 24,250 26,688 22,461 13,323 -0,338 -4,420 13,797 19,978 22,051 26,471 19,288 18,796 20,234 9,138 0,433 14,225 18,676 19,141 24,269 25,522 19,209 10,939 11,127 14,223 12,326 10,806 24,123 17,270 19,979 13,504 14,342 12,794 10,844 7,525 10,020 -24,872 8,100
11,415 17,977 16,584 -5,036 22,242 11,579 -3,433 -3,102 -0,384 19,112 21,955 8,607 15,824 14,977 -2,886 -2,647 22,016 24,297 27,597 20,777 21,859 2,376 9,157 16,560 25,782 24,647 27,401 23,099 13,615 0,537 -3,616 14,291 20,268 22,348 27,032 19,988 19,390 20,402 9,035 0,555 14,193 18,715 19,541 24,905 26,052 19,410 10,988 11,030 14,208 12,275 10,811 24,675 17,279 20,150 13,259 14,745 13,246 10,776 7,969 9,948 -24,433 8,361
11,495 17,855 16,525 -4,664 22,694 11,534 -3,249 -2,964 -0,685 18,853 21,858 9,689 16,186 14,774 -2,673 -2,497 21,936 24,069 27,545 20,896 21,999 4,192 9,936 16,775 25,758 24,649 27,718 23,384 13,822 1,063 -2,321 14,773 20,424 22,517 27,303 20,390 19,714 20,353 8,691 0,909 14,124 18,685 19,818 25,326 26,251 19,367 10,858 10,737 14,073 12,118 10,868 24,932 17,115 20,121 12,835 14,872 13,478 10,643 8,470 9,736 -23,927 8,655
11,285 17,402 16,201 -4,522 22,883 11,253 -3,155 -2,875 -1,094 18,267 21,518 10,645 16,413 14,413 -2,561 -2,424 21,400 23,445 27,056 20,699 22,005 5,396 10,385 16,701 25,296 24,138 27,497 23,196 13,804 0,846 -0,908 15,043 20,264 22,361 27,091 20,328 19,605 20,022 8,127 1,238 13,881 18,441 19,751 25,333 26,015 19,024 10,479 10,254 13,804 11,753 10,687 24,785 16,766 19,832 12,307 14,668 13,439 10,386 8,760 9,346 -23,230 8,890
10,483 16,484 15,462 -5,031 22,559 10,552 -3,517 -3,196 -1,903 17,186 20,731 11,013 16,265 13,832 -2,911 -2,787 20,229 22,277 25,985 20,024 21,678 5,681 10,188 16,051 24,164 22,940 26,581 22,413 13,365 -0,331 0,144 14,816 19,532 21,593 26,146 19,624 18,893 19,334 7,390 1,266 13,260 17,747 19,064 24,658 25,188 18,267 9,783 9,586 13,287 11,000 9,952 24,057 16,173 19,183 11,740 14,018 13,016 9,924 8,571 8,695 -22,173 8,945
8,977 15,083 14,227 -6,343 21,608 9,402 -4,530 -4,139 -3,289 15,515 19,370 10,591 15,620 13,012 -3,915 -3,790 18,365 20,487 24,273 18,792 20,915 5,111 9,240 14,703 22,265 20,983 24,931 21,024 12,413 -2,286 0,538 13,936 18,103 20,042 24,349 18,219 17,533 18,257 6,566 0,864 12,148 16,458 17,613 23,157 23,697 17,025 8,764 8,757 12,412 9,738 8,530 22,667 15,288 18,126 11,165 12,878 12,149 9,219 7,836 7,766 -20,709 8,721
6,885 13,321 12,599 -8,327 20,132 7,971 -6,155 -5,688 -5,235 13,368 17,529 9,458 14,552 12,068 -5,531 -5,407 15,959 18,190 22,055 17,113 19,785 4,059 7,720 12,788 19,757 18,404 22,716 19,176 11,043 -4,342 0,271 12,489 16,084 17,804 21,820 16,239 15,650 16,835 5,727 0,057 10,593 14,626 15,479 20,904 21,648 15,346 7,485 7,779 11,139 7,998 6,536 20,709 14,203 16,717 10,551 11,308 10,879 8,263 6,749 6,685 -18,964 8,205
4,600 11,491 10,906 -10,548 18,444 6,617 -8,000 -7,468 -7,371 11,139 15,570 7,935 13,344 11,261 -7,370 -7,260 13,437 15,780 19,728 15,344 18,574 3,051 6,066 10,709 17,106 15,630 20,343 17,222 9,576 -5,686 -0,355 10,819 13,864 15,303 18,981 14,029 13,581 15,299 4,959 -0,963 8,833 12,555 13,038 18,264 19,373 13,485 6,162 6,758 9,573 6,039 4,374 18,485 13,181 15,181 9,911 9,501 9,377 7,136 5,679 5,714 -17,207 7,496
2,703 10,008 9,561 -12,384 16,944 5,747 -9,410 -8,832 -9,035 9,384 13,988 6,484 12,369 10,826 -8,780 -8,696 11,399 13,828 17,828 13,978 17,683 2,579 4,815 9,052 14,956 13,280 18,354 15,639 8,466 -5,961 -0,861 9,410 12,019 13,188 16,481 12,112 11,822 14,063 4,410 -1,842 7,281 10,756 10,909 15,839 17,370 11,892 5,172 5,965 8,004 4,321 2,638 16,472 12,501 13,898 9,411 7,808 7,968 6,084 5,005 5,128 -15,784 6,788
1,609 9,140 8,750 -13,407 15,866 5,512 -9,936 -9,344 -9,754 8,448 13,050 5,432 11,786 10,688 -9,314 -9,255 10,231 12,694 16,666 13,287 17,306 2,807 4,265 8,219 13,733 11,787 17,080 14,710 7,978 -5,446 -0,938 8,591 10,964 11,944 14,822 10,885 10,719 13,423 4,148 -2,307 6,269 9,640 9,593 14,141 16,006 10,905 4,773 5,600 6,737 3,224 1,732 15,052 12,179 13,145 9,205 6,558 6,934 5,350 4,848 4,974 -14,979 6,269
1,298 8,820 8,319 -13,656 15,153 5,706 -9,661 -9,096 -9,601 8,232 12,628 4,776 11,426 10,479 -9,053 -9,005 9,847 12,278 16,120 13,137 17,282 3,473 4,292 8,161 13,371 11,106 16,432 14,335 8,017 -4,696 -0,717 8,320 10,690 11,580 14,025 10,341 10,236 13,324 4,027 -2,405 5,814 9,254 9,137 13,259 15,271 10,505 4,857 5,565 5,889 2,793 1,608 14,254 11,947 12,876 9,210 5,853 6,312 4,950 5,023 5,032 -14,821 6,000
1,451 8,774 8,023 -13,472 14,630 6,050 -8,965 -8,462 -8,995 8,414 12,427 4,316 11,053 9,944 -8,379 -8,318 9,905 12,242 15,853 13,216 17,335 4,258 4,618 8,573 13,501 10,902 16,121 14,249 8,351 -4,115 -0,570 8,362 10,919 11,769 13,774 10,204 10,120 13,544 3,836 -2,376 5,729 9,381 9,258 12,929 14,911 10,457 5,131 5,607 5,409 2,838 1,939 13,849 11,564 12,855 9,196 5,594 5,982 4,733 5,320 5,069 -15,055 5,962
1,717 8,723 7,735 -13,233 14,161 6,403 -8,194 -7,775 -8,359 8,717 12,220 3,838 10,580 9,167 -7,638 -7,538 10,105 12,284 15,598 13,291 17,315 5,117 5,075 9,179 13,777 10,849 15,918 14,269 8,836 -3,843 -0,781 8,523 11,387 12,168 13,743 10,202 10,164 13,923 3,494 -2,443 5,825 9,767 9,635 12,835 14,706 10,563 5,388 5,557 5,170 3,138 2,406 13,591 11,017 12,900 8,997 5,566 5,796 4,559 5,692 5,023 -15,383 6,129
1,785 8,440 7,360 -13,288 13,599 6,666 -7,631 -7,301 -8,039 8,909 11,834 3,134 9,976 8,355 -7,110 -6,960 10,197 12,147 15,151 13,168 17,143 6,232 5,554 9,754 13,942 10,678 15,651 14,241 9,317 -3,902 -1,487 8,651 11,881 12,504 13,688 10,104 10,193 14,311 3,035 -2,795 5,913 10,171 10,000 12,717 14,504 10,652 5,511 5,333 4,952 3,454 2,734 13,289 10,366 12,893 8,519 5,436 5,528 4,290 6,097 4,879 -15,648 6,416
1,420 7,766 6,730 -13,862 12,744 6,707 -7,499 -7,250 -8,302 8,726 11,080 2,021 9,123 7,519 -7,016 -6,819 9,946 11,581 14,315 12,611 16,668 7,890 5,979 10,117 13,805 10,151 15,122 13,937 9,474 -4,344 -2,696 8,642 12,232 12,579 13,406 9,678 9,991 14,442 2,530 -3,534 5,847 10,409 10,157 12,383 14,156 10,517 5,365 4,874 4,548 3,570 2,681 12,810 9,536 12,722 7,671 4,906 4,944 3,767 6,414 4,508 -15,700 6,656
0,599 6,707 5,716 -14,864 11,484 6,496 -7,779 -7,592 -9,162 7,997 9,843 0,463 7,896 6,482 -7,338 -7,106 9,265 10,474 13,008 11,453 15,714 10,383 6,423 10,270 13,339 9,193 14,199 13,147 8,924 -5,171 -4,152 8,576 12,462 12,396 12,847 8,810 9,410 14,051 2,099 -4,470 5,715 10,528 10,116 11,832 13,611 10,047 4,861 4,203 4,026 3,520 2,185 12,200 8,394 12,358 6,441 4,022 4,047 2,944 6,623 3,738 -15,283 6,744
-0,451 5,465 4,375 -15,923 9,910 6,179 -8,172 -8,014 -10,315 6,790 8,203 -1,401 6,300 5,109 -7,774 -7,522 8,310 8,985 11,358 9,750 14,230 13,598 7,053 10,430 12,740 7,993 12,936 11,843 7,487 -6,192 -5,305 8,719 12,800 12,201 12,188 7,612 8,501 13,064 1,872 -5,110 5,872 10,825 10,139 11,301 12,999 9,340 4,055 3,467 3,792 3,650 1,425 11,716 6,967 11,917 4,998 3,246 3,174 1,983 6,869 2,563 -14,188 6,719
-1,478 4,279 2,880 -16,740 8,162 5,861 -8,419 -8,245 -11,378 5,336 6,350 -3,474 4,410 3,407 -8,049 -7,788 7,305 7,395 9,582 7,712 12,311 16,332 7,735 10,726 12,195 6,798 11,496 10,151 5,314 -7,132 -5,667 9,169 13,371 12,186 11,625 6,293 7,394 11,606 1,775 -5,018 6,580 11,522 10,457 11,024 12,442 8,529 3,054 2,791 4,205 4,263 0,618 11,566 5,386 11,443 3,678 3,028 2,679 1,156 7,134 1,118 -12,483 6,648
-2,520 3,140 1,295 -17,455 6,172 5,316 -8,690 -8,444 -12,253 3,763 4,344 -5,912 2,200 1,443 -8,310 -8,048 6,257 5,814 7,749 5,493 10,061 16,270 7,759 10,858 11,583 5,613 9,930 8,165 2,741 -7,972 -5,327 9,523 13,879 12,179 11,103 4,901 6,054 9,818 1,406 -4,255 7,623 12,410 10,929 10,901 11,803 7,522 1,841 2,118 5,121 5,206 -0,306 11,608 3,620 10,666 2,808 3,326 2,555 0,623 6,925 -0,549 -10,427 6,477
-3,937 1,785 -0,441 -18,647 3,708 4,081 -9,555 -9,184 -13,241 2,007 2,111 -9,009 -0,442 -0,715 -9,117 -8,847 4,970 4,154 5,799 3,126 7,527 11,564 6,298 10,264 10,581 4,242 8,174 5,924 0,068 -9,014 -4,964 9,153 13,804 11,772 10,361 3,324 4,321 7,772 0,300 -3,362 8,435 12,992 11,127 10,555 10,782 6,103 0,300 1,248 6,021 5,991 -1,731 11,462 1,447 9,250 2,433 3,721 2,491 0,285 5,566 -2,500 -8,163 6,079
-5,938 0,090 -2,251 -20,722 0,827 2,015 -11,352 -10,812 -14,636 0,102 -0,242 -12,697 -3,400 -2,921 -10,818 -10,519 3,426 2,464 3,847 0,753 4,860 3,012 3,376 8,772 9,148 2,706 6,334 3,619 -2,453 -10,493 -5,138 7,942 13,011 10,842 9,318 1,590 2,256 5,600 -1,623 -2,793 8,714 13,046 10,817 9,775 9,350 4,347 -1,492 0,060 6,625 6,373 -3,861 10,960 -1,133 7,350 2,236 3,993 2,310 -0,083 3,006 -4,661 -5,699 5,477
-8,118 -1,607 -3,780 -23,237 -1,887 -0,371 -13,621 -12,900 -16,197 -1,569 -2,239 -16,238 -6,151 -4,894 -12,980 -12,636 2,008 1,129 2,306 -1,223 2,448 -5,987 0,103 6,939 7,737 1,411 4,809 1,667 -4,529 -12,280 -5,688 6,511 11,987 9,777 8,289 0,048 0,307 3,627 -3,962 -2,425 8,758 12,876 10,232 8,786 7,886 2,703 -3,160 -1,290 7,196 6,611 -6,260 10,339 -3,626 5,600 1,911 4,372 2,196 -0,494 0,083 -6,721 -3,123 4,988
-9,702 -2,736 -4,626 -25,131 -3,690 -2,312 -15,451 -14,574 -17,269 -2,491 -3,338 -18,649 -8,063 -6,358 -14,711 -14,324 1,219 0,598 1,602 -2,361 0,723 -12,210 -2,265 5,558 6,905 0,824 4,020 0,469 -5,877 -13,992 -5,983 5,647 11,381 9,126 7,730 -0,856 -0,999 2,227 -6,146 -1,727 9,143 12,981 9,831 8,032 6,845 1,625 -4,274 -2,438 8,211 7,158 -8,124 9,984 -5,385 4,538 1,550 5,247 2,503 -0,667 -2,186 -8,330 -0,664 5,006
-10,185 -2,982 -4,645 -25,627 -4,214 -3,380 -16,258 -15,280 -17,382 -2,424 -3,345 -19,399 -8,845 -7,227 -15,433 -15,025 1,272 0,996 1,847 -2,507 -0,120 -14,795 -3,247 5,018 6,864 1,107 4,093 0,148 -6,394 -15,273 -5,553 5,682 11,499 9,155 7,876 -0,902 -1,419 1,582 -7,782 -0,289 10,207 13,625 9,927 7,823 6,454 1,293 -4,618 -3,071 9,928 8,259 -8,933 10,129 -6,104 4,317 1,483 6,809 3,448 -0,294 -3,368 -9,315 1,409 5,681
-9,605 -2,467 -4,017 -24,656 -3,578 -3,640 -16,040 -15,015 -16,534 -1,536 -2,492 -18,568 -8,611 -7,615 -15,136 -14,744 1,987 2,067 2,792 -1,871 -0,188 -14,721 -3,128 5,196 7,432 2,067 4,825 0,515 -6,226 -15,951 -4,351 6,455 12,219 9,768 8,644 -0,198 -1,056 1,600 -8,795 1,908 11,876 14,730 10,564 8,214 6,678 1,632 -4,237 -3,122 12,254 9,854 -8,701 10,770 -5,913 4,811 1,907 8,963 5,002 0,716 -3,670 -9,749 2,987 6,902
-8,315 -1,562 -3,069 -22,568 -2,141 -3,420 -15,076 -14,039 -15,016 -0,223 -1,214 -16,522 -7,653 -7,700 -14,098 -13,756 2,990 3,377 4,012 -0,844 0,265 -13,262 -2,433 5,748 8,256 3,321 5,842 1,220 -5,673 -16,054 -2,604 7,597 13,209 10,693 9,760 0,950 -0,201 2,018 -9,358 4,578 13,834 16,029 11,595 9,074 7,312 2,421 -3,373 -2,758 14,863 11,696 -7,754 11,755 -5,149 5,764 2,723 11,406 6,943 2,215 -3,518 -9,852 4,223 8,486
-6,670 -0,596 -2,094 -19,772 -0,279 -3,030 -13,633 -12,604 -13,160 1,144 0,116 -13,662 -6,251 -7,606 -12,601 -12,321 3,947 4,553 5,146 0,238 0,996 -11,205 -1,555 6,389 9,043 4,501 6,817 1,961 -5,015 -15,749 -0,610 8,792 14,161 11,677 10,944 2,236 0,864 2,571 -9,694 7,294 15,733 17,246 12,799 10,200 8,119 3,402 -2,341 -2,239 17,359 13,476 -6,426 12,883 -4,151 6,890 3,638 13,745 8,936 3,888 -3,197 -9,824 5,305 10,226
-4,867 0,315 -1,219 -16,618 1,714 -2,567 -11,845 -10,844 -11,188 2,399 1,344 -10,388 -4,611 -7,356 -10,797 -10,572 4,743 5,451 6,071 1,234 1,888 -8,825 -0,625 7,030 9,715 5,438 7,635 2,650 -4,351 -15,277 1,379 9,886 14,936 12,608 12,065 3,495 1,991 3,151 -9,868 9,621 17,321 18,215 13,991 11,439 8,964 4,405 -1,349 -1,713 19,424 14,959 -4,894 14,010 -3,144 7,994 4,395 15,638 10,663 5,417 -2,725 -9,728 6,187 11,868
-2,988 1,222 -0,416 -13,417 3,623 -1,928 -9,779 -8,824 -9,210 3,559 2,496 -7,119 -2,890 -6,910 -8,760 -8,574 5,476 6,151 6,879 2,171 2,923 -6,134 0,413 7,741 10,380 6,200 8,376 3,381 -3,615 -14,969 3,182 10,874 15,586 13,507 13,149 4,710 3,168 3,835 -9,757 11,245 18,505 18,941 15,089 12,740 9,869 5,396 -0,422 -1,142 20,931 16,076 -3,203 15,084 -2,226 9,027 4,928 16,949 11,969 6,633 -1,960 -9,510 6,649 13,187
-1,110 2,175 0,347 -10,455 5,274 -1,019 -7,572 -6,669 -7,332 4,667 3,587 -4,277 -1,268 -6,280 -6,617 -6,457 6,264 6,782 7,671 3,059 4,042 -3,186 1,613 8,591 11,135 6,921 9,132 4,224 -2,753 -15,159 4,676 11,786 16,223 14,414 14,266 5,869 4,379 4,692 -9,268 12,101 19,315 19,515 16,072 14,083 10,865 6,373 0,450 -0,482 21,923 16,887 -1,410 16,095 -1,442 9,967 5,244 17,754 12,863 7,490 -0,819 -9,133 6,552 14,084
0,682 3,166 1,047 -7,885 6,570 0,126 -5,424 -4,567 -5,663 5,725 4,558 -2,134 0,094 -5,553 -4,547 -4,408 7,134 7,422 8,463 3,825 5,099 -0,195 2,941 9,572 11,985 7,670 9,892 5,097 -1,836 -15,848 5,831 12,641 16,907 15,319 15,433 6,892 5,526 5,629 -8,527 12,408 19,851 20,025 16,935 15,425 11,884 7,249 1,163 0,149 22,509 17,487 0,388 17,017 -0,790 10,703 5,278 18,223 13,403 7,958 0,603 -8,626 5,947 14,612
2,390 4,213 1,688 -5,654 7,578 1,415 -3,474 -2,654 -4,206 6,764 5,392 -0,667 1,163 -4,793 -2,674 -2,552 8,085 8,143 9,268 4,420 5,987 2,555 4,333 10,663 12,937 8,502 10,621 5,879 -0,966 -16,529 6,743 13,482 17,657 16,222 16,650 7,713 6,512 6,483 -7,762 12,496 20,232 20,536 17,722 16,745 12,828 7,916 1,589 0,572 22,801 17,969 2,141 17,840 -0,162 11,120 4,970 18,505 13,649 8,028 2,124 -8,049 4,947 14,891
4,063 5,360 2,337 -3,642 8,461 2,775 -1,774 -0,994 -2,867 7,856 6,178 0,333 2,030 -3,992 -1,047 -0,919 9,140 9,029 10,135 4,891 6,709 4,776 5,728 11,849 14,037 9,491 11,337 6,528 -0,188 -16,592 7,530 14,350 18,471 17,159 17,927 8,359 7,320 7,163 -7,102 12,522 20,522 21,081 18,504 18,060 13,685 8,371 1,729 0,744 22,838 18,367 3,852 18,600 0,595 11,232 4,410 18,652 13,665 7,791 3,575 -7,426 3,581 14,988
5,666 6,573 3,053 -1,882 9,318 4,118 -0,377 0,353 -1,595 9,034 7,018 1,002 2,778 -3,124 0,278 0,450 10,307 10,122 11,084 5,334 7,322 6,219 7,028 13,063 15,302 10,669 12,092 7,073 0,508 -15,841 8,176 15,196 19,301 18,155 19,253 8,913 7,986 7,669 -6,574 12,386 20,674 21,623 19,310 19,370 14,508 8,718 1,694 0,752 22,554 18,620 5,473 19,334 1,551 11,189 3,799 18,605 13,511 7,398 4,817 -6,753 1,847 14,896
7,053 7,709 3,842 -0,562 10,148 5,294 0,631 1,307 -0,450 10,244 7,951 1,368 3,436 -2,189 1,221 1,464 11,555 11,387 12,076 5,820 7,869 6,762 8,121 14,198 16,686 11,992 12,923 7,557 1,123 -14,529 8,519 15,883 20,068 19,175 20,573 9,427 8,540 8,016 -6,207 11,882 20,582 22,071 20,111 20,642 15,353 9,075 1,581 0,679 21,862 18,636 6,872 20,049 2,662 11,167 3,297 18,283 13,231 6,968 5,724 -6,038 -0,144 14,632
8,119 8,652 4,712 0,192 10,979 6,161 1,243 1,875 0,514 11,440 8,991 1,514 4,050 -1,205 1,780 2,090 12,869 12,791 13,111 6,413 8,397 6,546 8,977 15,213 18,154 13,432 13,868 8,055 1,675 -13,043 8,450 16,339 20,762 20,196 21,876 9,952 9,045 8,254 -6,024 10,952 20,234 22,411 20,922 21,906 16,304 9,548 1,468 0,590 20,830 18,449 7,954 20,780 3,874 11,321 2,997 17,735 12,919 6,598 6,260 -5,295 -2,185 14,341
8,988 9,500 5,750 0,519 11,945 6,744 1,670 2,277 1,437 12,743 10,242 1,684 4,749 -0,167 2,167 2,523 14,365 14,449 14,354 7,267 9,030 6,022 9,749 16,248 19,801 15,098 15,059 8,749 2,300 -11,667 8,100 16,696 21,552 21,349 23,315 10,657 9,693 8,569 -5,914 9,841 19,845 22,823 21,910 23,335 17,523 10,304 1,530 0,634 19,764 18,313 8,838 21,666 5,192 11,829 3,011 17,206 12,765 6,453 6,597 -4,482 -4,176 14,260
10,049 10,602 7,150 0,828 13,271 7,306 2,327 2,933 2,680 14,469 11,942 2,198 5,721 0,992 2,796 3,175 16,315 16,648 16,128 8,634 9,998 5,808 10,756 17,606 21,870 17,251 16,745 9,934 3,273 -10,529 7,786 17,260 22,733 22,920 25,187 11,836 10,799 9,298 -5,583 8,963 19,769 23,603 23,335 25,194 19,231 11,569 2,054 1,080 19,054 18,573 9,894 22,899 6,665 12,876 3,515 16,994 12,980 6,747 7,113 -3,479 -6,325 14,577
11,686 12,310 9,103 1,534 15,149 8,198 3,549 4,181 4,535 16,897 14,333 3,268 7,115 2,379 4,004 4,388 18,968 19,633 18,701 10,710 11,522 6,380 12,293 19,552 24,580 20,122 19,141 11,849 4,834 -9,574 7,757 18,307 24,507 25,141 27,704 13,696 12,589 10,723 -4,716 8,589 20,258 24,941 25,326 27,615 21,554 13,463 3,238 2,144 18,930 19,412 11,505 24,571 8,364 14,528 4,635 17,231 13,647 7,598 8,195 -2,144 -9,053 15,320
13,886 14,598 11,566 2,682 17,540 9,563 5,262 5,935 6,854 19,907 17,341 4,825 8,887 3,999 5,719 6,090 22,210 23,244 21,950 13,366 13,576 7,785 14,347 22,010 27,815 23,587 22,134 14,383 6,888 -8,581 8,018 19,841 26,742 27,898 30,721 16,079 14,923 12,745 -3,209 8,635 21,233 26,696 27,644 30,365 24,301 15,780 4,915 3,736 19,305 20,646 13,687 26,499 10,297 16,566 6,235 17,775 14,612 8,862 9,938 -0,453 -12,539 16,320
16,099 16,949 14,094 3,855 20,024 11,155 6,940 7,647 8,984 22,834 20,388 6,495 10,707 5,615 7,417 7,755 25,385 26,745 25,191 16,019 15,738 9,566 16,455 24,436 30,957 26,977 25,092 16,937 8,864 -7,430 8,312 21,458 28,882 30,580 33,589 18,354 17,188 14,762 -1,288 8,694 22,213 28,333 29,646 32,788 26,854 17,907 6,511 5,398 19,760 21,708 15,923 28,165 12,272 18,416 7,816 18,209 15,471 10,091 11,987 1,348 -16,326 17,238
17,450 18,550 15,908 4,362 21,877 12,436 7,819 8,544 10,014 24,661 22,522 7,728 12,054 6,837 8,333 8,625 27,459 29,008 27,367 17,785 17,333 10,908 17,805 25,946 32,997 29,193 27,005 18,599 9,941 -6,369 8,179 22,414 30,066 32,214 35,295 19,614 18,492 15,912 0,569 8,181 22,443 29,045 30,461 33,977 28,307 18,997 7,263 6,467 19,647 21,829 17,364 28,826 13,834 19,299 8,655 17,972 15,673 10,648 13,615 2,791 -19,452 17,624
17,139 18,639 16,218 3,544 22,362 12,809 7,190 7,915 9,143 24,442 22,812 8,021 12,440 7,321 7,752 7,991 27,440 28,980 27,478 17,871 17,767 10,962 17,554 25,656 32,929 29,157 26,926 18,558 9,526 -5,853 7,053 21,874 29,450 31,852 34,874 19,088 18,066 15,522 1,779 6,520 21,171 28,040 29,330 33,146 27,830 18,328 6,565 6,331 18,319 20,330 17,212 27,795 14,389 18,538 8,110 16,577 14,709 9,946 14,016 3,453 -21,048 17,068
14,916 16,930 14,678 1,192 21,174 11,936 4,791 5,502 6,141 21,847 20,884 7,225 11,692 6,941 5,403 5,578 24,949 26,287 25,154 16,047 16,895 9,385 15,319 23,184 30,333 26,437 24,541 16,584 7,675 -6,113 4,551 19,403 26,689 29,118 31,972 16,614 15,735 13,531 1,935 3,457 18,083 25,008 26,050 30,093 25,166 15,737 4,320 4,756 15,480 17,017 15,197 24,863 13,564 15,975 5,999 13,903 12,406 7,807 12,762 3,232 -20,876 15,469
11,337 13,891 11,731 -2,228 18,736 10,028 1,125 1,810 1,648 17,527 17,296 5,689 10,139 5,923 1,774 1,874 20,606 21,638 21,030 12,920 15,172 6,803 11,594 19,051 25,802 21,675 20,506 13,276 5,115 -6,942 0,845 15,408 22,304 24,581 27,208 12,845 12,141 10,598 1,123 -0,663 13,639 20,478 21,266 25,472 20,930 11,857 1,102 2,135 11,470 12,453 11,841 20,580 11,591 12,224 2,820 10,361 9,145 4,694 10,223 2,442 -19,473 13,177
7,459 10,506 8,418 -5,855 15,962 7,785 -2,746 -2,109 -3,106 12,840 13,291 4,035 8,440 4,771 -2,090 -2,062 15,765 16,506 16,469 9,628 13,385 4,637 7,593 14,479 20,693 16,310 16,127 9,763 2,778 -7,828 -3,353 11,016 17,496 19,513 21,915 8,926 8,418 7,733 -0,080 -5,008 8,897 15,630 16,203 20,495 16,339 7,845 -2,113 -0,668 7,136 7,744 8,188 16,028 9,266 8,404 -0,456 6,712 5,715 1,500 7,428 1,615 -17,761 10,826
4,203 7,663 5,693 -8,930 13,668 5,920 -5,834 -5,277 -7,021 9,013 10,012 2,768 7,147 3,917 -5,216 -5,230 11,672 12,230 12,715 7,134 12,126 4,272 4,513 10,635 16,282 11,692 12,549 6,998 1,228 -8,327 -7,231 7,348 13,432 15,113 17,330 5,809 5,512 5,685 -1,073 -8,731 4,900 11,592 11,971 16,242 12,483 4,699 -4,509 -2,862 3,345 3,935 5,158 12,196 7,368 5,476 -2,981 3,653 2,853 -0,996 5,390 1,119 -16,408 8,971
1,959 5,738 3,915 -11,073 12,155 4,737 -7,693 -7,245 -9,622 6,514 7,894 2,059 6,406 3,436 -7,163 -7,175 8,842 9,340 10,260 5,737 11,484 6,197 2,883 8,035 13,116 8,402 10,185 5,291 0,475 -8,357 -10,242 4,933 10,645 11,911 13,980 3,822 3,732 4,605 -1,676 -11,347 2,179 8,892 9,050 13,168 9,799 2,761 -5,824 -4,174 0,624 1,537 3,118 9,519 6,154 3,766 -4,479 1,546 0,908 -2,503 4,524 0,934 -15,442 7,839
0,614 4,635 2,898 -12,321 11,233 4,121 -8,456 -8,114 -11,020 5,130 6,711 1,737 6,021 3,139 -8,042 -8,016 7,098 7,634 8,901 5,182 11,198 9,505 2,437 6,536 11,052 6,300 8,833 4,437 0,237 -8,138 -12,093 3,680 9,035 9,793 11,743 2,800 2,882 4,235 -2,088 -12,684 0,769 7,470 7,348 11,182 8,147 1,840 -6,231 -4,763 -0,847 0,546 1,915 7,947 5,412 3,076 -5,141 0,490 -0,103 -3,157 4,555 0,816 -14,457 7,311
-0,182 4,050 2,299 -13,017 10,522 3,734 -8,627 -8,347 -11,564 4,428 6,020 1,442 5,720 2,873 -8,313 -8,238 6,016 6,672 8,222 5,097 11,019 11,876 2,324 5,646 9,689 5,012 8,147 4,152 0,300 -7,876 -12,686 3,154 8,208 8,419 10,324 2,489 2,655 4,332 -2,508 -12,744 0,449 7,001 6,557 10,010 7,243 1,655 -5,949 -4,844 -1,127 0,691 1,159 7,271 4,846 3,109 -5,197 0,437 -0,297 -3,206 4,733 0,620 -13,216 7,045
-0,785 3,667 1,869 -13,614 9,730 3,151 -8,858 -8,563 -11,614 4,064 5,506 0,841 5,334 2,635 -8,578 -8,466 5,235 6,114 7,922 5,247 10,849 10,521 1,501 4,800 8,664 4,251 7,899 4,277 0,622 -7,640 -12,294 2,766 7,718 7,467 9,499 2,729 2,837 4,815 -2,945 -11,791 0,835 7,078 6,356 9,391 6,886 2,031 -5,102 -4,521 -0,550 1,544 0,472 7,252 4,331 3,663 -4,740 1,111 0,099 -2,868 4,149 0,383 -12,029 6,640
-1,387 3,327 1,517 -14,426 8,793 2,091 -9,597 -9,212 -11,437 3,871 5,080 -0,201 4,814 2,461 -9,274 -9,128 4,590 5,822 7,886 5,537 10,704 4,299 -0,572 3,681 7,805 3,890 7,995 4,749 1,232 -7,418 -11,515 2,088 7,252 6,748 9,127 3,402 3,297 5,671 -3,264 -10,352 1,489 7,347 6,483 9,132 6,964 2,844 -3,797 -3,836 0,394 2,631 -0,345 7,644 3,872 4,596 -3,793 2,065 0,772 -2,304 2,303 0,207 -11,468 5,856
-1,923 3,125 1,297 -15,421 7,873 0,695 -10,750 -10,240 -11,127 3,854 4,830 -1,571 4,214 2,342 -10,343 -10,140 4,163 5,850 8,129 5,959 10,658 -4,794 -3,399 2,479 7,202 3,935 8,434 5,540 2,127 -7,172 -10,808 1,211 6,832 6,292 9,160 4,397 3,983 6,864 -3,265 -8,918 2,196 7,707 6,836 9,157 7,426 3,981 -2,163 -2,796 1,362 3,671 -1,199 8,282 3,532 5,807 -2,380 2,964 1,495 -1,586 -0,378 0,190 -11,770 4,809
-2,283 3,202 1,264 -16,424 7,140 -0,607 -11,907 -11,282 -10,746 4,030 4,809 -3,099 3,590 2,205 -11,420 -11,124 4,083 6,237 8,615 6,461 10,736 -13,102 -5,898 1,635 7,013 4,353 9,143 6,541 3,158 -6,918 -10,301 0,570 6,662 6,213 9,534 5,523 4,811 8,236 -2,843 -7,761 2,952 8,222 7,375 9,409 8,178 5,261 -0,423 -1,480 2,247 4,593 -1,902 9,059 3,343 7,144 -0,631 3,682 2,161 -0,770 -2,890 0,342 -12,629 3,840
-2,616 3,434 1,310 -17,518 6,544 -1,543 -12,900 -12,202 -10,558 4,215 4,839 -4,803 2,869 1,930 -12,362 -11,958 4,239 6,778 9,106 6,830 10,796 -18,300 -7,400 1,302 7,150 4,909 9,850 7,461 3,973 -6,785 -10,021 0,395 6,770 6,434 10,007 6,424 5,513 9,439 -2,167 -7,000 3,718 8,848 7,929 9,686 8,958 6,356 1,044 -0,175 3,017 5,334 -2,500 9,791 3,223 8,319 1,128 4,155 2,648 -0,034 -4,576 0,517 -13,479 3,172
-3,272 3,460 1,210 -19,021 5,839 -2,140 -13,909 -13,188 -10,939 4,069 4,587 -6,842 1,893 1,420 -13,338 -12,850 4,307 7,089 9,245 6,777 10,582 -20,368 -7,979 1,239 7,290 5,241 10,177 7,944 4,188 -6,917 -9,986 0,565 6,949 6,677 10,226 6,715 5,743 10,075 -1,574 -6,620 4,347 9,377 8,218 9,708 9,437 6,914 1,865 0,736 3,632 5,782 -3,253 10,243 3,020 9,026 2,495 4,318 2,818 0,405 -5,451 0,492 -13,889 2,792
-4,482 2,971 0,772 -21,081 4,790 -2,549 -15,115 -14,407 -12,073 3,329 3,794 -9,248 0,573 0,646 -14,504 -13,995 3,985 6,843 8,746 6,099 9,906 -20,341 -8,056 1,113 7,108 5,047 9,849 7,748 3,620 -7,346 -10,160 0,808 6,941 6,646 9,924 6,200 5,303 9,922 -1,334 -6,537 4,684 9,577 8,032 9,299 9,411 6,763 1,906 1,014 4,029 5,861 -4,349 10,266 2,592 9,139 3,228 4,144 2,627 0,462 -5,841 0,128 -13,687 2,608
-6,204 1,864 -0,090 -23,477 3,333 -2,922 -16,503 -15,829 -13,845 1,939 2,392 -11,783 -1,033 -0,371 -15,839 -15,384 3,131 5,910 7,508 4,769 8,744 -19,100 -8,016 0,696 6,412 4,181 8,784 6,813 2,347 -8,008 -10,516 0,853 6,543 6,128 8,995 4,918 4,206 8,982 -1,558 -6,730 4,602 9,278 7,325 8,444 8,852 5,951 1,256 0,642 4,102 5,538 -5,775 9,846 1,823 8,730 3,305 3,661 2,145 0,204 -6,058 -0,610 -12,803 2,591
-8,176 0,252 -1,322 -25,726 1,630 -3,364 -17,906 -17,282 -15,948 0,043 0,513 -14,010 -2,721 -1,578 -17,193 -16,844 1,784 4,359 5,647 2,942 7,248 -17,040 -8,051 -0,070 5,185 2,676 7,096 5,263 0,634 -8,817 -11,060 0,538 5,683 5,053 7,510 3,097 2,637 7,438 -2,215 -7,211 4,061 8,449 6,229 7,278 7,878 4,681 0,108 -0,242 3,786 4,847 -7,365 9,113 0,669 7,983 2,853 2,998 1,540 -0,226 -6,277 -1,668 -11,143 2,798
-10,053 -1,596 -2,740 -27,342 0,013 -3,899 -19,095 -18,529 -18,013 -2,090 -1,559 -15,453 -4,192 -2,849 -18,359 -18,128 0,131 2,425 3,458 0,910 5,693 -14,179 -8,155 -1,089 3,593 0,734 5,060 3,369 -1,168 -9,691 -11,750 -0,106 4,468 3,566 5,701 1,091 0,911 5,607 -3,165 -7,893 3,181 7,238 5,008 6,068 6,712 3,223 -1,296 -1,391 3,164 3,938 -8,889 8,305 -0,753 7,113 2,098 2,379 1,033 -0,637 -6,511 -2,898 -8,671 3,325
-11,549 -3,368 -4,115 -28,046 -1,170 -4,506 -19,870 -19,363 -19,737 -4,178 -3,502 -15,801 -5,163 -3,997 -19,157 -19,018 -1,590 0,395 1,285 -1,004 4,357 -10,478 -8,231 -2,211 1,891 -1,367 2,994 1,443 -2,735 -10,571 -12,495 -0,926 3,101 1,937 3,862 -0,757 -0,667 3,829 -4,228 -8,623 2,152 5,871 3,911 5,075 5,574 1,814 -2,703 -2,549 2,402 2,992 -10,151 7,631 -2,179 6,268 1,291 1,983 0,774 -0,881 -6,679 -4,087 -5,559 4,181
-12,512 -4,807 -5,265 -27,823 -1,699 -5,143 -20,143 -19,690 -20,953 -5,994 -5,074 -15,023 -5,482 -4,855 -19,499 -19,417 -3,176 -1,485 -0,591 -2,535 3,441 -6,221 -8,229 -3,319 0,286 -3,376 1,155 -0,265 -3,854 -11,405 -13,194 -1,796 1,736 0,398 2,211 -2,238 -1,924 2,352 -5,258 -9,305 1,115 4,511 3,040 4,404 4,575 0,591 -3,928 -3,539 1,651 2,117 -11,041 7,169 -3,341 5,487 0,613 1,855 0,779 -0,912 -6,716 -5,054 -2,190 5,242
-12,913 -5,749 -6,090 -26,866 -1,558 -5,742 -19,968 -19,570 -21,638 -7,386 -6,142 -13,376 -5,183 -5,358 -19,429 -19,377 -4,497 -3,030 -1,990 -3,516 3,045 -2,314 -8,220 -4,354 -1,105 -5,107 -0,293 -1,588 -4,444 -12,110 -13,702 -2,666 0,461 -0,924 0,872 -3,285 -2,824 1,312 -6,129 -9,880 0,165 3,248 2,367 4,008 3,746 -0,381 -4,874 -4,267 1,044 1,359 -11,528 6,896 -4,117 4,763 0,150 1,970 0,994 -0,777 -6,604 -5,677 0,966 6,303
-12,848 -6,144 -6,585 -25,536 -0,960 -6,260 -19,578 -19,232 -21,925 -8,319 -6,708 -11,310 -4,477 -5,549 -19,150 -19,113 -5,528 -4,156 -2,862 -3,919 3,140 -0,300 -8,449 -5,351 -2,273 -6,479 -1,305 -2,458 -4,558 -12,563 -13,853 -3,578 -0,724 -2,024 -0,153 -3,936 -3,434 0,718 -6,756 -10,280 -0,667 2,083 1,764 3,744 3,054 -1,127 -5,550 -4,748 0,656 0,688 -11,682 6,709 -4,597 4,072 -0,141 2,237 1,295 -0,606 -6,437 -5,912 3,413 7,090
-12,565 -6,127 -6,889 -24,312 -0,280 -6,817 -19,372 -19,068 -22,117 -8,953 -6,948 -9,320 -3,697 -5,583 -19,023 -19,004 -6,417 -4,968 -3,358 -3,928 3,521 -1,661 -9,306 -6,486 -3,361 -7,589 -2,020 -2,985 -4,417 -12,706 -13,688 -4,711 -1,993 -3,078 -1,059 -4,385 -3,954 0,371 -7,227 -10,552 -1,530 0,845 0,968 3,346 2,334 -1,833 -6,143 -5,198 0,347 -0,093 -11,718 6,358 -5,017 3,288 -0,512 2,396 1,400 -0,662 -6,492 -5,865 4,735 7,307
-12,430 -6,035 -7,280 -23,643 0,084 -7,686 -19,771 -19,491 -22,609 -9,619 -7,199 -7,805 -3,189 -5,706 -19,457 -19,462 -7,457 -5,764 -3,823 -3,911 3,836 -6,457 -11,073 -8,003 -4,624 -8,711 -2,747 -3,472 -4,361 -12,654 -13,630 -6,325 -3,644 -4,404 -2,189 -4,966 -4,686 -0,102 -7,837 -10,992 -2,748 -0,765 -0,352 2,476 1,290 -2,813 -7,000 -6,007 -0,247 -1,325 -11,968 5,488 -5,631 2,163 -1,367 2,060 0,925 -1,285 -7,124 -5,828 4,903 6,828
-12,718 -6,185 -7,973 -23,718 -0,065 -9,022 -20,920 -20,658 -23,638 -10,578 -7,735 -6,918 -3,139 -6,121 -20,617 -20,642 -8,851 -6,798 -4,559 -4,179 3,819 -12,736 -13,566 -9,970 -6,215 -10,078 -3,735 -4,186 -4,624 -12,578 -14,203 -8,511 -5,815 -6,193 -3,766 -5,928 -5,816 -0,969 -8,859 -11,958 -4,557 -2,915 -2,346 0,959 -0,272 -4,256 -8,362 -7,440 -1,424 -3,231 -12,668 3,907 -6,542 0,540 -2,954 0,992 -0,328 -2,637 -8,421 -6,074 4,438 5,871
-13,403 -6,623 -8,899 -24,372 -0,571 -10,625 -22,560 -22,322 -25,074 -11,762 -8,514 -6,512 -3,434 -6,798 -22,274 -22,302 -10,474 -8,019 -5,552 -4,730 3,515 -17,972 -16,173 -12,135 -7,991 -11,619 -4,915 -5,086 -5,094 -12,548 -15,529 -11,007 -8,282 -8,297 -5,655 -7,198 -7,209 -2,119 -10,235 -13,519 -6,844 -5,428 -4,807 -1,036 -2,208 -6,010 -10,083 -9,332 -3,129 -5,676 -13,740 1,799 -7,569 -1,412 -5,061 -0,662 -2,161 -4,495 -10,064 -6,584 3,927 4,831
-14,249 -7,172 -9,758 -25,320 -1,075 -12,098 -24,269 -24,071 -26,539 -12,839 -9,222 -6,368 -3,795 -7,493 -24,010 -24,030 -11,959 -9,133 -6,502 -5,311 3,182 -20,935 -18,296 -14,102 -9,609 -13,015 -5,976 -5,875 -5,460 -12,657 -17,240 -13,351 -10,608 -10,322 -7,475 -8,450 -8,520 -3,159 -11,546 -15,390 -9,224 -7,902 -7,298 -3,106 -4,107 -7,687 -11,706 -11,166 -5,013 -8,236 -14,877 -0,408 -8,332 -3,270 -7,095 -2,495 -4,112 -6,369 -11,618 -7,083 3,420 3,959
-15,085 -7,673 -10,284 -26,445 -1,340 -13,164 -25,792 -25,659 -27,725 -13,494 -9,566 -6,499 -4,066 -7,944 -25,541 -25,567 -12,968 -9,866 -7,116 -5,706 2,977 -21,881 -19,694 -15,587 -10,767 -13,966 -6,657 -6,319 -5,605 -13,206 -18,859 -15,168 -12,432 -11,919 -8,888 -9,417 -9,512 -3,797 -12,306 -17,169 -11,309 -9,977 -9,446 -4,907 -5,597 -8,971 -12,839 -12,455 -6,717 -10,486 -15,846 -2,357 -8,505 -4,667 -8,507 -4,141 -5,784 -7,840 -12,857 -7,348 2,556 3,301
-15,878 -8,071 -10,372 -27,764 -1,359 -13,773 -27,087 -27,028 -28,513 -13,590 -9,437 -7,067 -4,275 -8,017 -26,793 -26,849 -13,354 -10,085 -7,263 -5,888 2,847 -21,614 -20,447 -16,490 -11,326 -14,347 -6,898 -6,429 -5,752 -14,409 -20,131 -16,319 -13,595 -12,937 -9,755 -10,081 -10,199 -4,082 -12,298 -18,560 -12,896 -11,496 -11,094 -6,323 -6,570 -9,807 -13,427 -13,058 -8,044 -12,195 -16,598 -3,921 -8,030 -5,525 -9,160 -5,458 -7,034 -8,786 -13,802 -7,384 1,204 2,861
-16,525 -8,278 -10,021 -29,075 -1,170 -13,960 -28,072 -28,065 -28,807 -13,088 -8,828 -8,012 -4,459 -7,727 -27,685 -27,785 -13,097 -9,713 -6,910 -5,892 2,686 -20,770 -20,671 -16,783 -11,253 -14,148 -6,757 -6,347 -6,191 -15,896 -20,988 -16,812 -14,061 -13,359 -10,058 -10,537 -10,688 -4,254 -11,702 -19,378 -13,918 -12,435 -12,213 -7,366 -7,121 -10,311 -13,672 -13,159 -8,914 -13,305 -17,098 -5,126 -7,088 -5,996 -9,289 -6,436 -7,899 -9,326 -14,493 -7,345 -0,273 2,723
-16,701 -8,082 -9,242 -29,807 -0,689 -13,673 -28,450 -28,446 -28,369 -11,920 -7,721 -8,892 -4,519 -7,190 -27,950 -28,076 -12,179 -8,657 -6,002 -5,659 2,525 -19,576 -20,306 -16,370 -10,508 -13,342 -6,234 -6,113 -6,901 -16,904 -21,298 -16,610 -13,773 -13,129 -9,737 -10,726 -10,926 -4,406 -10,905 -19,442 -14,289 -12,744 -12,720 -7,968 -7,320 -10,532 -13,720 -12,976 -9,221 -13,778 -17,132 -5,953 -5,904 -6,211 -9,144 -7,003 -8,377 -9,576 -14,792 -7,353 -1,355 3,031
-16,051 -7,300 -8,093 -29,353 0,200 -12,855 -27,896 -27,830 -26,955 -10,063 -6,147 -9,191 -4,291 -6,553 -27,298 -27,400 -10,618 -6,905 -4,528 -5,094 2,508 -18,078 -19,249 -15,183 -9,103 -11,933 -5,278 -5,640 -7,526 -17,080 -20,872 -15,667 -12,706 -12,187 -8,720 -10,448 -10,725 -4,391 -10,233 -18,649 -13,926 -12,371 -12,513 -8,006 -7,151 -10,424 -13,552 -12,588 -8,896 -13,606 -16,434 -6,328 -4,660 -6,196 -8,807 -7,069 -8,424 -9,566 -14,562 -7,421 -1,801 3,797
-14,562 -6,015 -6,771 -27,629 1,398 -11,629 -26,416 -26,225 -24,631 -7,721 -4,316 -8,782 -3,778 -5,966 -25,744 -25,781 -8,607 -4,689 -2,676 -4,251 2,679 -16,461 -17,628 -13,388 -7,243 -10,103 -3,970 -4,912 -7,754 -16,854 -19,728 -14,137 -11,048 -10,666 -7,120 -9,659 -10,058 -4,088 -9,818 -17,192 -12,970 -11,463 -11,701 -7,534 -6,678 -10,023 -13,161 -12,032 -8,127 -12,990 -15,010 -6,326 -3,563 -6,035 -8,349 -6,770 -8,179 -9,421 -13,939 -7,538 -1,760 4,768
-12,628 -4,548 -5,520 -25,209 2,586 -10,235 -24,406 -24,052 -21,859 -5,275 -2,556 -8,045 -3,185 -5,507 -23,666 -23,647 -6,456 -2,397 -0,778 -3,333 2,920 -15,033 -15,780 -11,348 -5,245 -8,154 -2,527 -4,047 -7,581 -16,881 -18,178 -12,355 -9,162 -8,876 -5,243 -8,593 -9,150 -3,568 -9,575 -15,538 -11,776 -10,349 -10,613 -6,828 -6,096 -9,512 -12,662 -11,396 -7,331 -12,306 -13,196 -6,184 -2,783 -5,916 -7,940 -6,454 -7,952 -9,383 -13,207 -7,685 -1,604 5,569
-10,742 -3,186 -4,447 -22,876 3,492 -8,788 -22,365 -21,851 -19,228 -3,046 -1,077 -7,477 -2,698 -5,073 -21,545 -21,518 -4,408 -0,344 0,909 -2,491 3,148 -14,017 -14,013 -9,381 -3,348 -6,322 -1,143 -3,155 -7,171 -17,230 -16,648 -10,619 -7,362 -7,111 -3,408 -7,564 -8,269 -2,968 -9,289 -14,162 -10,705 -9,337 -9,600 -6,166 -5,580 -9,063 -12,191 -10,778 -6,871 -11,878 -11,377 -6,118 -2,289 -5,977 -7,734 -6,411 -7,968 -9,601 -12,440 -7,735 -1,721 5,956
-9,239 -2,080 -3,551 -21,183 4,030 -7,299 -20,658 -20,028 -17,202 -1,241 0,045 -7,357 -2,377 -4,523 -19,754 -19,770 -2,634 1,285 2,252 -1,792 3,387 -13,476 -12,528 -7,694 -1,716 -4,758 0,055 -2,306 -6,669 -17,359 -15,526 -9,151 -5,879 -5,602 -1,889 -6,812 -7,591 -2,414 -8,844 -13,417 -10,030 -8,651 -8,941 -5,739 -5,246 -8,793 -11,874 -10,295 -6,954 -11,926 -9,816 -6,260 -1,947 -6,252 -7,805 -6,803 -8,317 -10,082 -11,469 -7,527 -2,350 5,883
-8,294 -1,307 -2,877 -20,373 4,207 -5,912 -19,485 -18,815 -16,026 0,000 0,763 -7,731 -2,248 -3,892 -18,523 -18,602 -1,294 2,376 3,164 -1,291 3,653 -13,348 -11,453 -6,426 -0,497 -3,602 0,944 -1,605 -6,189 -16,871 -15,079 -8,135 -4,904 -4,563 -0,918 -6,481 -7,221 -2,035 -8,348 -13,508 -9,945 -8,473 -8,835 -5,682 -5,187 -8,786 -11,837 -10,096 -7,693 -12,604 -8,689 -6,706 -1,695 -6,723 -8,183 -7,726 -9,065 -10,808 -10,199 -7,051 -3,508 5,420
-7,920 -0,872 -2,477 -20,436 4,092 -4,862 -18,886 -18,252 -15,669 0,671 1,086 -8,498 -2,305 -3,343 -17,911 -18,035 -0,450 2,957 3,655 -1,002 3,943 -13,432 -10,790 -5,607 0,263 -2,903 1,480 -1,118 -5,799 -15,948 -15,337 -7,632 -4,493 -4,070 -0,566 -6,550 -7,154 -1,893 -8,030 -14,382 -10,454 -8,839 -9,291 -5,991 -5,387 -9,024 -12,121 -10,269 -9,036 -13,888 -8,070 -7,435 -1,512 -7,306 -8,844 -9,147 -10,211 -11,748 -8,803 -6,433 -5,049 4,701
-7,934 -0,663 -2,279 -21,116 3,858 -4,224 -18,726 -18,186 -15,840 0,968 1,177 -9,420 -2,439 -2,966 -17,786 -17,905 0,021 3,257 3,893 -0,804 4,289 -13,390 -10,375 -5,116 0,705 -2,523 1,784 -0,778 -5,474 -15,013 -16,087 -7,492 -4,472 -3,969 -0,664 -6,813 -7,242 -1,920 -8,044 -15,729 -11,320 -9,542 -10,056 -6,464 -5,647 -9,323 -12,614 -10,768 -10,697 -15,479 -7,846 -8,229 -1,316 -7,801 -9,714 -10,796 -11,584 -12,803 -7,552 -5,787 -6,764 3,882
-8,024 -0,479 -2,112 -21,962 3,755 -3,844 -18,731 -18,310 -16,137 1,191 1,299 -10,141 -2,452 -2,713 -17,859 -17,923 0,369 3,590 4,133 -0,481 4,770 -12,748 -9,936 -4,735 1,069 -2,213 2,098 -0,401 -5,106 -14,308 -17,006 -7,441 -4,526 -3,959 -0,882 -6,960 -7,229 -1,940 -8,349 -17,149 -12,187 -10,226 -10,730 -6,779 -5,659 -9,389 -13,061 -11,384 -12,267 -16,926 -7,756 -8,732 -1,005 -7,914 -10,636 -12,237 -12,836 -13,773 -6,533 -5,152 -8,393 3,137
-7,864 -0,120 -1,812 -22,447 4,025 -3,470 -18,545 -18,244 -16,185 1,610 1,691 -10,264 -2,125 -2,439 -17,763 -17,753 0,845 4,177 4,589 0,158 5,479 -10,949 -9,179 -4,232 1,571 -1,744 2,653 0,219 -4,538 -13,821 -17,772 -7,207 -4,349 -3,754 -0,883 -6,704 -6,847 -1,718 -8,668 -18,336 -12,746 -10,557 -10,948 -6,635 -5,147 -8,933 -13,117 -11,771 -13,405 -17,829 -7,502 -8,619 -0,507 -7,350 -11,348 -13,068 -13,569 -14,376 -5,555 -4,493 -9,668 2,651
-7,224 0,533 -1,259 -22,137 4,822 -2,855 -17,817 -17,621 -15,713 2,369 2,480 -9,506 -1,291 -1,964 -17,139 -17,081 1,613 5,063 5,359 1,199 6,495 -7,500 -7,861 -3,423 2,331 -0,986 3,563 1,204 -3,641 -13,362 -18,122 -6,592 -3,751 -3,188 -0,460 -5,902 -5,932 -1,061 -8,615 -19,133 -12,833 -10,353 -10,528 -5,877 -4,008 -7,831 -12,514 -11,588 -13,961 -17,995 -6,841 -7,765 0,245 -6,005 -11,555 -13,105 -13,531 -14,358 -4,293 -3,712 -10,440 2,570
-6,040 1,471 -0,403 -20,824 6,131 -1,824 -16,281 -16,177 -14,589 3,456 3,655 -7,823 0,073 -1,196 -15,714 -15,670 2,707 6,147 6,398 2,590 7,825 -2,215 -5,862 -2,207 3,358 0,046 4,768 2,504 -2,407 -12,695 -17,856 -5,503 -2,699 -2,253 0,391 -4,634 -4,532 0,051 -7,949 -19,447 -12,429 -9,614 -9,515 -4,574 -2,388 -6,235 -11,247 -10,679 -14,002 -17,459 -5,649 -6,314 1,277 -4,144 -11,032 -12,445 -12,738 -13,596 -2,501 -2,723 -10,728 2,948
-4,438 2,584 0,707 -18,618 7,718 -0,341 -13,882 -13,859 -12,844 4,736 5,049 -5,492 1,771 -0,227 -13,424 -13,443 4,033 7,270 7,561 4,147 9,345 4,399 -3,273 -0,599 4,567 1,199 6,065 3,910 -0,995 -11,684 -16,777 -3,953 -1,298 -1,046 1,534 -3,147 -2,892 1,447 -6,720 -19,122 -11,583 -8,452 -8,104 -2,954 -0,615 -4,515 -9,583 -9,124 -13,687 -16,399 -3,979 -4,574 2,502 -2,326 -9,642 -11,352 -11,419 -12,113 -0,173 -1,547 -10,616 3,738
-2,751 3,686 1,880 -16,053 9,187 1,395 -11,019 -11,065 -10,797 5,985 6,376 -3,124 3,407 0,705 -10,646 -10,735 5,361 8,255 8,655 5,593 10,799 10,642 -0,556 1,185 5,795 2,252 7,207 5,167 0,331 -10,365 -14,790 -2,113 0,237 0,265 2,778 -1,720 -1,334 2,870 -5,193 -18,050 -10,382 -7,035 -6,565 -1,295 1,005 -3,013 -7,874 -7,187 -13,120 -15,035 -2,133 -2,839 3,714 -1,010 -7,464 -10,075 -9,848 -10,127 2,324 -0,332 -10,290 4,725
-1,527 4,431 2,737 -14,073 10,082 2,824 -8,686 -8,776 -9,158 6,818 7,223 -1,497 4,475 1,276 -8,341 -8,465 6,262 8,823 9,387 6,551 11,820 13,665 1,337 2,591 6,699 2,912 7,918 5,998 1,264 -8,966 -12,228 -0,469 1,499 1,352 3,829 -0,623 -0,192 4,023 -3,744 -16,461 -9,092 -5,682 -5,272 0,080 2,256 -1,919 -6,439 -5,343 -12,415 -13,665 -0,701 -1,351 4,573 -0,238 -5,067 -8,841 -8,317 -8,135 4,134 0,648 -10,112 5,474
-1,368 4,345 2,762 -13,584 9,967 3,160 -8,005 -8,092 -8,740 6,701 7,092 -1,223 4,498 1,093 -7,612 -7,715 6,170 8,553 9,323 6,577 11,972 11,049 1,354 2,887 6,767 2,777 7,847 6,051 1,460 -7,924 -9,890 0,275 1,949 1,720 4,247 -0,154 0,192 4,554 -2,848 -14,943 -8,185 -4,869 -4,660 0,788 2,899 -1,391 -5,595 -4,194 -11,827 -12,680 -0,369 -0,376 4,634 0,121 -3,335 -7,929 -7,185 -6,767 4,236 0,978 -10,274 5,551
-2,508 3,162 1,634 -14,806 8,634 2,018 -9,291 -9,326 -9,839 5,320 5,679 -2,414 3,283 -0,110 -8,792 -8,830 4,799 7,178 8,133 5,431 10,977 3,256 -0,682 1,794 5,693 1,594 6,753 5,062 0,697 -7,698 -8,426 -0,204 1,344 1,093 3,726 -0,508 -0,365 4,214 -2,898 -13,959 -7,943 -4,868 -4,902 0,622 2,743 -1,566 -5,572 -4,111 -11,596 -12,309 -1,427 -0,074 3,611 0,054 -2,799 -7,527 -6,704 -6,356 2,358 0,309 -10,447 4,907
-4,537 1,166 -0,438 -17,086 6,321 -0,095 -11,692 -11,654 -11,951 2,939 3,224 -4,630 1,118 -2,184 -11,084 -11,042 2,526 4,959 5,987 3,370 9,012 -5,993 -3,637 -0,094 3,792 -0,384 4,829 3,204 -0,856 -8,400 -7,777 -1,402 0,101 -0,207 2,469 -1,528 -1,615 3,156 -3,875 -13,447 -8,104 -5,379 -5,633 -0,153 1,943 -2,299 -6,226 -4,914 -11,648 -12,313 -3,421 -0,231 1,706 -0,394 -3,265 -7,488 -6,772 -6,701 -0,557 -1,301 -10,149 3,944
-6,647 -0,954 -2,813 -19,443 3,636 -2,124 -13,892 -13,789 -14,180 0,291 0,444 -7,172 -1,356 -4,578 -13,212 -13,124 0,207 2,603 3,554 1,055 6,677 -12,554 -5,921 -1,735 1,853 -2,461 2,699 1,095 -2,651 -9,708 -7,405 -2,389 -0,971 -1,424 1,120 -2,705 -2,948 1,910 -5,318 -13,016 -8,063 -5,718 -6,153 -0,893 1,034 -3,110 -7,042 -6,012 -11,595 -12,116 -5,437 -0,308 -0,439 -0,885 -4,083 -7,373 -6,943 -7,246 -3,048 -3,358 -9,371 3,159
-8,204 -2,584 -4,825 -21,257 1,194 -3,245 -15,077 -14,929 -15,881 -1,902 -1,924 -9,512 -3,546 -6,692 -14,365 -14,290 -1,403 0,791 1,558 -0,861 4,604 -14,737 -6,668 -2,398 0,595 -3,962 1,020 -0,613 -4,114 -11,141 -6,860 -2,517 -1,249 -1,919 0,308 -3,517 -3,791 1,030 -6,652 -12,346 -7,357 -5,329 -5,918 -1,017 0,589 -3,497 -7,494 -6,814 -11,002 -11,226 -6,763 0,184 -2,165 -0,973 -4,607 -6,734 -6,704 -7,435 -4,181 -5,267 -8,525 2,844
-9,031 -3,476 -6,091 -22,459 -0,638 -3,217 -15,218 -15,046 -16,927 -3,280 -3,482 -11,444 -5,172 -8,180 -14,488 -14,472 -2,009 -0,165 0,395 -2,046 3,155 -13,389 -5,960 -1,956 0,319 -4,564 0,156 -1,567 -4,935 -12,320 -6,008 -1,655 -0,557 -1,491 0,307 -3,695 -3,903 0,801 -7,471 -11,299 -5,866 -4,053 -4,813 -0,335 0,895 -3,217 -7,325 -6,997 -9,613 -9,488 -7,217 1,415 -3,213 -0,388 -4,476 -5,334 -5,742 -6,937 -3,871 -6,646 -7,945 3,052
-9,268 -3,696 -6,552 -23,235 -1,769 -2,250 -14,709 -14,517 -17,488 -3,856 -4,202 -12,931 -6,229 -8,988 -13,950 -13,992 -1,735 -0,309 0,086 -2,509 2,400 -10,264 -4,346 -0,686 0,946 -4,295 0,120 -1,744 -5,085 -13,047 -4,906 -0,021 0,924 -0,310 1,047 -3,244 -3,344 1,216 -7,620 -9,829 -3,741 -2,055 -3,074 0,981 1,900 -2,302 -6,540 -6,510 -7,437 -7,044 -6,997 3,234 -3,811 0,894 -3,651 -3,205 -4,051 -5,716 -2,566 -7,411 -7,621 3,691
-9,183 -3,510 -6,419 -23,775 -2,323 -0,789 -13,997 -13,763 -17,782 -3,887 -4,309 -13,980 -6,861 -9,264 -13,194 -13,254 -0,957 0,070 0,389 -2,488 2,200 -6,862 -2,455 0,952 2,122 -3,453 0,659 -1,364 -4,736 -13,324 -3,709 1,974 2,800 1,241 2,240 -2,372 -2,361 2,067 -7,227 -8,010 -1,314 0,300 -1,114 2,560 3,307 -0,965 -5,317 -5,518 -4,748 -4,246 -6,449 5,279 -4,412 2,674 -2,341 -0,635 -1,908 -4,014 -0,895 -7,717 -7,300 4,591
-9,106 -3,281 -6,078 -24,280 -2,558 0,617 -13,478 -13,163 -18,057 -3,767 -4,177 -14,646 -7,235 -9,220 -12,631 -12,661 -0,195 0,530 0,897 -2,327 2,288 -4,139 -0,873 2,412 3,300 -2,531 1,335 -0,803 -4,193 -13,334 -2,670 3,800 4,550 2,672 3,448 -1,430 -1,325 3,021 -6,649 -6,125 0,969 2,518 0,595 3,940 4,660 0,442 -3,981 -4,381 -1,999 -1,584 -5,976 7,079 -5,257 4,556 -0,926 1,888 0,213 -2,287 0,544 -7,816 -6,739 5,516
-9,288 -3,264 -5,862 -24,904 -2,656 1,521 -13,407 -12,983 -18,534 -3,822 -4,125 -14,920 -7,380 -8,956 -12,539 -12,503 0,098 0,657 1,223 -2,281 2,464 -2,480 0,001 3,232 3,971 -2,012 1,742 -0,414 -3,718 -13,267 -2,049 5,001 5,722 3,556 4,231 -0,765 -0,578 3,781 -6,226 -4,520 2,741 4,164 1,691 4,732 5,531 1,543 -2,878 -3,478 0,392 0,513 -5,885 8,241 -6,141 6,088 0,196 3,913 1,858 -0,990 1,363 -7,846 -5,894 6,221
-9,712 -3,408 -5,822 -25,573 -2,545 1,834 -13,749 -13,224 -19,215 -4,085 -4,184 -14,602 -7,103 -8,368 -12,895 -12,772 -0,199 0,331 1,240 -2,346 2,769 -1,728 0,151 3,297 3,952 -2,082 1,751 -0,299 -3,361 -13,124 -1,902 5,452 6,196 3,774 4,412 -0,480 -0,222 4,268 -5,960 -3,305 3,950 5,130 2,141 4,849 5,776 2,177 -2,144 -2,918 2,326 1,958 -6,201 8,704 -6,570 7,041 0,882 5,362 2,894 -0,262 1,572 -7,701 -4,882 6,554
-10,163 -3,466 -5,770 -26,040 -2,010 1,807 -14,236 -13,656 -19,893 -4,351 -4,162 -13,464 -6,199 -7,329 -13,431 -13,222 -0,882 -0,281 1,073 -2,337 3,351 -1,424 -0,121 2,836 3,414 -2,622 1,500 -0,330 -3,062 -12,744 -2,050 5,375 6,192 3,511 4,124 -0,441 -0,121 4,566 -5,535 -2,319 4,834 5,653 2,210 4,503 5,565 2,439 -1,684 -2,498 4,033 3,015 -6,719 8,735 -6,183 7,486 1,297 6,544 3,557 0,124 1,488 -7,183 -3,747 6,555
-10,541 -3,356 -5,549 -26,193 -1,018 1,687 -14,669 -14,085 -20,414 -4,491 -3,943 -11,597 -4,774 -5,989 -13,928 -13,665 -1,697 -0,995 0,829 -2,186 4,148 -1,175 -0,508 2,139 2,615 -3,446 1,135 -0,414 -2,908 -12,021 -2,297 5,084 5,982 3,000 3,560 -0,542 -0,171 4,674 -4,710 -1,393 5,629 6,025 2,158 3,932 5,114 2,438 -1,438 -2,026 5,757 3,992 -7,294 8,612 -5,063 7,561 1,648 7,775 4,144 0,446 1,388 -6,325 -2,335 6,414
-10,982 -3,293 -5,212 -26,207 0,162 1,480 -15,083 -14,527 -20,850 -4,595 -3,640 -9,496 -3,278 -4,783 -14,392 -14,134 -2,543 -1,785 0,472 -2,059 4,836 -0,868 -0,902 1,346 1,689 -4,468 0,658 -0,623 -3,113 -11,062 -2,610 4,758 5,695 2,352 2,785 -0,833 -0,418 4,464 -3,622 -0,534 6,404 6,386 2,058 3,229 4,509 2,158 -1,489 -1,553 7,528 5,020 -7,980 8,428 -3,671 7,315 1,966 9,121 4,783 0,799 1,285 -5,463 -0,453 6,356
-11,705 -3,581 -4,958 -26,424 1,114 1,005 -15,681 -15,159 -21,425 -4,850 -3,494 -7,785 -2,219 -4,110 -15,011 -14,809 -3,452 -2,719 -0,096 -2,188 5,083 -0,628 -1,378 0,463 0,651 -5,660 -0,002 -1,060 -3,740 -10,170 -3,083 4,411 5,333 1,587 1,788 -1,389 -0,936 3,872 -2,704 0,119 7,096 6,729 1,863 2,404 3,758 1,553 -1,924 -1,299 9,198 6,050 -8,918 8,150 -2,558 6,780 2,156 10,440 5,424 1,114 1,001 -4,978 1,870 6,531
-12,758 -4,313 -4,970 -27,059 1,548 0,098 -16,599 -16,107 -22,243 -5,328 -3,655 -6,842 -1,847 -4,083 -15,928 -15,801 -4,465 -3,796 -0,875 -2,660 4,804 -0,655 -2,064 -0,522 -0,504 -6,962 -0,859 -1,701 -4,592 -9,634 -3,802 3,967 4,854 0,723 0,620 -2,160 -1,675 3,022 -2,348 0,415 7,586 6,971 1,521 1,505 2,900 0,705 -2,666 -1,432 10,530 6,922 -10,134 7,719 -2,088 6,051 2,118 11,475 5,884 1,243 0,368 -5,005 4,220 6,929
-13,879 -5,242 -5,262 -27,942 1,484 -1,203 -17,677 -17,219 -23,062 -5,866 -4,044 -6,573 -2,044 -4,528 -17,013 -16,932 -5,484 -4,837 -1,688 -3,326 4,205 -1,054 -2,977 -1,526 -1,656 -8,197 -1,786 -2,368 -5,351 -9,509 -4,743 3,363 4,263 -0,136 -0,529 -2,947 -2,441 2,185 -2,600 0,311 7,785 7,044 1,089 0,676 2,040 -0,156 -3,478 -1,905 11,291 7,477 -11,398 7,135 -2,290 5,280 1,833 11,965 5,951 1,059 -0,618 -5,373 5,989 7,380
-14,662 -5,959 -5,671 -28,638 1,214 -2,675 -18,572 -18,152 -23,450 -6,171 -4,406 -6,565 -2,468 -5,179 -17,950 -17,842 -6,284 -5,553 -2,270 -3,917 3,599 -1,804 -3,988 -2,380 -2,558 -9,101 -2,553 -2,844 -5,801 -9,731 -5,779 2,624 3,680 -0,787 -1,381 -3,495 -2,997 1,618 -3,153 -0,116 7,697 6,974 0,745 0,129 1,342 -0,776 -4,092 -2,465 11,411 7,670 -12,379 6,514 -2,912 4,627 1,380 11,838 5,589 0,588 -1,797 -5,827 6,881 7,722
-14,864 -6,199 -6,002 -28,797 1,066 -4,086 -19,056 -18,664 -23,172 -6,062 -4,530 -6,396 -2,790 -5,830 -18,515 -18,299 -6,670 -5,762 -2,448 -4,237 3,191 -2,821 -4,921 -2,957 -2,986 -9,473 -2,968 -3,019 -5,901 -10,369 -6,782 1,845 3,274 -1,040 -1,712 -3,641 -3,197 1,444 -3,607 -0,760 7,406 6,867 0,665 0,030 0,953 -1,037 -4,381 -2,843 11,057 7,588 -12,890 6,043 -3,634 4,179 0,859 11,311 4,998 -0,000 -2,963 -6,223 7,146 7,941
-14,457 -5,928 -6,119 -28,279 1,246 -5,252 -19,058 -18,667 -22,283 -5,560 -4,336 -5,787 -2,784 -6,319 -18,617 -18,246 -6,575 -5,482 -2,190 -4,210 3,067 -3,946 -5,624 -3,197 -2,851 -9,254 -2,959 -2,880 -5,691 -11,461 -7,669 1,155 3,179 -0,809 -1,440 -3,352 -3,007 1,655 -3,720 -1,500 7,035 6,842 0,946 0,442 0,931 -0,975 -4,380 -2,910 10,511 7,394 -12,903 5,869 -4,192 3,913 0,327 10,736 4,454 -0,533 -3,937 -6,492 7,197 8,095
-13,504 -5,243 -5,948 -27,058 1,803 -5,994 -18,517 -18,096 -20,933 -4,789 -3,838 -4,611 -2,333 -6,481 -18,180 -17,658 -6,030 -4,840 -1,549 -3,830 3,273 -4,911 -5,966 -3,057 -2,198 -8,503 -2,553 -2,452 -5,201 -12,598 -8,358 0,680 3,445 -0,113 -0,612 -2,677 -2,444 2,174 -3,478 -2,189 6,690 6,976 1,595 1,317 1,239 -0,692 -4,177 -2,695 9,976 7,229 -12,411 6,012 -4,424 3,738 -0,173 10,330 4,105 -0,912 -4,548 -6,535 7,202 8,232
-12,152 -4,324 -5,548 -25,245 2,606 -6,229 -17,434 -16,967 -19,306 -3,917 -3,158 -2,963 -1,504 -6,266 -17,197 -16,566 -5,182 -4,020 -0,689 -3,197 3,761 -5,445 -5,899 -2,546 -1,210 -7,412 -1,903 -1,843 -4,506 -13,090 -8,765 0,473 4,011 0,906 0,602 -1,766 -1,618 2,842 -3,086 -2,726 6,391 7,228 2,487 2,480 1,730 -0,331 -3,876 -2,355 9,460 7,095 -11,463 6,335 -4,355 3,537 -0,603 10,037 3,897 -1,134 -4,705 -6,332 7,127 8,415
-10,673 -3,434 -5,162 -23,149 3,362 -6,117 -16,016 -15,503 -17,672 -3,174 -2,554 -1,165 -0,584 -5,867 -15,867 -15,181 -4,335 -3,291 0,088 -2,571 4,327 -5,447 -5,553 -1,818 -0,214 -6,327 -1,302 -1,306 -3,791 -12,624 -8,831 0,454 4,667 1,957 1,885 -0,892 -0,791 3,415 -2,878 -3,107 6,049 7,420 3,334 3,622 2,140 -0,104 -3,646 -2,149 8,824 6,829 -10,268 6,550 -4,251 3,156 -1,007 9,607 3,600 -1,323 -4,546 -6,060 6,882 8,679
-9,436 -2,872 -5,124 -21,242 3,737 -6,036 -14,673 -14,134 -16,371 -2,830 -2,349 0,391 0,057 -5,629 -14,592 -13,892 -3,883 -2,979 0,431 -2,283 4,699 -5,072 -5,232 -1,178 0,404 -5,648 -1,082 -1,134 -3,275 -11,560 -8,592 0,424 5,094 2,682 2,833 -0,372 -0,301 3,645 -3,147 -3,360 5,543 7,326 3,776 4,380 2,163 -0,239 -3,680 -2,337 7,918 6,227 -9,178 6,315 -4,478 2,441 -1,504 8,766 2,928 -1,682 -4,440 -6,003 6,337 8,953
-8,825 -2,908 -5,668 -20,060 3,491 -6,398 -13,863 -13,333 -15,753 -3,118 -2,791 1,395 0,149 -5,853 -13,829 -13,130 -4,151 -3,354 0,092 -2,578 4,675 -4,645 -5,262 -0,966 0,352 -5,669 -1,482 -1,519 -3,134 -10,625 -8,206 0,162 4,999 2,784 3,109 -0,439 -0,402 3,384 -3,996 -3,518 4,779 6,772 3,541 4,475 1,597 -0,873 -4,100 -3,046 6,687 5,173 -8,596 5,417 -5,258 1,342 -2,185 7,368 1,703 -2,365 -4,788 -6,368 5,456 9,103
-9,149 -3,734 -6,823 -20,054 2,542 -7,403 -13,912 -13,426 -16,087 -4,150 -3,959 1,619 -0,404 -6,646 -13,894 -13,208 -5,232 -4,518 -0,987 -3,540 4,154 -4,460 -5,803 -1,388 -0,447 -6,475 -2,572 -2,498 -3,499 -10,524 -7,889 -0,461 4,256 2,138 2,575 -1,201 -1,185 2,582 -5,358 -3,678 3,715 5,684 2,549 3,795 0,425 -2,020 -4,960 -4,266 5,169 3,670 -8,825 3,864 -6,532 -0,085 -3,108 5,442 -0,057 -3,429 -5,754 -7,222 4,466 9,068
-10,524 -5,391 -8,428 -21,425 0,963 -8,938 -14,917 -14,498 -17,475 -5,866 -5,741 0,885 -1,568 -7,915 -14,881 -14,229 -6,965 -6,361 -2,681 -5,105 3,104 -4,668 -6,788 -2,425 -1,863 -7,950 -4,262 -3,994 -4,486 -11,724 -7,818 -1,430 2,944 0,823 1,283 -2,650 -2,609 1,239 -7,105 -3,985 2,373 4,104 0,902 2,387 -1,239 -3,628 -6,318 -5,951 3,492 1,826 -9,963 1,839 -8,038 -1,769 -4,385 3,195 -2,155 -4,897 -7,209 -8,529 3,802 8,883
-12,799 -7,718 -10,244 -23,989 -1,057 -10,718 -16,759 -16,404 -19,766 -8,058 -7,903 -0,817 -3,213 -9,468 -16,663 -16,072 -9,047 -8,621 -4,752 -7,108 1,562 -5,285 -8,047 -3,887 -3,656 -9,860 -6,355 -5,857 -6,144 -14,256 -8,086 -2,621 1,291 -0,930 -0,575 -4,653 -4,534 -0,599 -9,110 -4,521 0,856 2,197 -1,165 0,430 -3,224 -5,613 -8,216 -8,051 1,855 -0,169 -11,877 -0,394 -9,511 -3,672 -6,149 0,979 -4,301 -6,757 -8,903 -10,199 3,904 8,635
-15,527 -10,335 -12,021 -27,123 -3,202 -12,456 -19,060 -18,757 -22,520 -10,399 -10,136 -3,110 -5,080 -11,099 -18,880 -18,353 -11,145 -10,953 -6,901 -9,297 -0,301 -6,121 -9,362 -5,485 -5,548 -11,909 -8,592 -7,872 -8,345 -17,523 -8,637 -3,833 -0,417 -2,805 -2,710 -6,947 -6,713 -2,772 -11,237 -5,239 -0,664 0,217 -3,340 -1,776 -5,334 -7,826 -10,561 -10,441 0,445 -2,087 -14,205 -2,554 -10,790 -5,732 -8,404 -0,863 -6,223 -8,891 -10,576 -12,068 4,985 8,447
-18,095 -12,745 -13,532 -29,987 -5,060 -13,939 -21,267 -21,000 -25,147 -12,533 -12,107 -5,267 -6,779 -12,585 -21,007 -20,521 -12,961 -13,006 -8,822 -11,350 -2,165 -6,686 -10,449 -6,898 -7,261 -13,792 -10,702 -9,785 -10,734 -20,525 -9,311 -4,857 -1,918 -4,493 -4,796 -9,207 -8,842 -5,012 -13,309 -6,051 -2,031 -1,576 -5,318 -3,903 -7,370 -10,078 -13,102 -12,905 -0,692 -3,761 -16,447 -4,454 -11,780 -7,853 -10,972 -2,198 -7,796 -11,105 -11,952 -13,881 6,876 8,443
-19,999 -14,529 -14,634 -31,943 -6,289 -15,063 -22,882 -22,645 -27,184 -14,199 -13,564 -6,596 -7,948 -13,736 -22,582 -22,099 -14,303 -14,533 -10,300 -12,972 -3,684 -6,295 -11,025 -7,866 -8,588 -15,293 -12,473 -11,390 -12,870 -22,548 -9,985 -5,557 -3,046 -5,797 -6,579 -11,171 -10,679 -7,038 -15,130 -6,929 -3,183 -3,018 -6,912 -5,723 -9,208 -12,195 -15,539 -15,195 -1,662 -5,147 -18,180 -6,062 -12,421 -9,940 -13,572 -3,147 -9,069 -13,214 -12,790 -15,374 9,078 8,655
-20,949 -15,430 -15,302 -32,690 -6,780 -15,784 -23,572 -23,366 -28,375 -15,267 -14,400 -6,749 -8,418 -14,484 -23,290 -22,776 -15,081 -15,423 -11,227 -13,997 -4,628 -4,254 -10,849 -8,211 -9,397 -16,297 -13,778 -12,585 -14,410 -23,508 -10,556 -5,854 -3,724 -6,620 -7,892 -12,669 -12,070 -8,630 -16,523 -7,836 -4,106 -4,039 -8,031 -7,106 -10,766 -14,021 -17,590 -17,066 -2,598 -6,270 -19,140 -7,415 -12,754 -11,884 -15,862 -3,905 -10,144 -15,025 -12,901 -16,385 11,021 9,053
-20,817 -15,350 -15,553 -32,123 -6,623 -15,999 -23,131 -22,950 -28,558 -15,638 -14,601 -5,746 -8,230 -14,873 -22,922 -22,358 -15,218 -15,617 -11,553 -14,382 -4,923 -0,155 -9,754 -7,806 -9,581 -16,714 -14,524 -13,307 -15,179 -23,650 -10,828 -5,683 -3,884 -6,885 -8,591 -13,573 -12,888 -9,617 -17,367 -8,617 -4,740 -4,601 -8,597 -7,930 -11,927 -15,387 -19,012 -18,300 -3,510 -7,114 -19,164 -8,478 -12,904 -13,535 -17,509 -4,560 -11,028 -16,327 -12,147 -16,882 12,358 9,642
-19,698 -14,400 -15,387 -30,415 -6,008 -15,605 -21,613 -21,439 -27,737 -15,284 -14,215 -3,935 -7,558 -14,961 -21,513 -20,897 -14,698 -15,118 -11,276 -14,177 -4,626 5,525 -7,835 -6,678 -9,117 -16,484 -14,652 -13,503 -15,167 -23,228 -10,549 -5,056 -3,520 -6,563 -8,587 -13,830 -13,065 -9,913 -17,628 -9,077 -5,041 -4,706 -8,581 -8,105 -12,555 -16,162 -19,699 -18,802 -4,302 -7,637 -18,270 -9,142 -12,959 -14,755 -18,343 -5,080 -11,651 -17,012 -10,576 -16,904 13,011 10,425
-18,064 -12,984 -14,859 -28,235 -5,196 -14,760 -19,586 -19,392 -26,284 -14,393 -13,417 -1,916 -6,646 -14,762 -19,598 -18,935 -13,735 -14,108 -10,533 -13,542 -3,908 10,869 -5,703 -5,208 -8,212 -15,707 -14,236 -13,205 -14,518 -22,455 -9,662 -4,229 -2,835 -5,812 -7,974 -13,540 -12,702 -9,583 -17,382 -9,179 -5,109 -4,484 -8,116 -7,694 -12,620 -16,346 -19,768 -18,691 -4,891 -7,866 -16,838 -9,348 -12,871 -15,496 -18,468 -5,441 -11,976 -17,174 -8,677 -16,516 13,008 11,244
-16,647 -11,694 -14,166 -26,575 -4,489 -13,990 -18,061 -17,818 -24,922 -13,397 -12,528 -0,321 -5,763 -14,320 -18,148 -17,440 -12,806 -13,007 -9,644 -12,762 -3,034 12,957 -4,441 -4,136 -7,329 -14,727 -13,548 -12,624 -13,530 -21,555 -8,549 -3,764 -2,289 -5,046 -7,084 -12,971 -12,100 -8,880 -16,832 -9,146 -5,232 -4,251 -7,533 -6,983 -12,298 -16,130 -19,521 -18,282 -5,324 -7,977 -15,568 -9,190 -12,557 -15,842 -18,212 -5,725 -12,094 -17,085 -7,402 -15,836 12,384 11,765
-15,995 -10,991 -13,569 -26,102 -4,084 -13,865 -17,850 -17,548 -24,274 -12,723 -11,863 0,553 -5,091 -13,744 -17,951 -17,207 -12,373 -12,246 -8,960 -12,123 -2,273 9,920 -4,913 -4,115 -6,928 -13,967 -12,916 -12,048 -12,537 -20,726 -7,840 -4,188 -2,331 -4,704 -6,324 -12,418 -11,588 -8,130 -16,236 -9,265 -5,684 -4,337 -7,177 -6,329 -11,880 -15,791 -19,273 -17,922 -5,718 -8,174 -15,043 -8,866 -12,010 -15,940 -17,943 -6,071 -12,176 -17,026 -7,605 -15,054 11,233 11,720
-16,039 -10,872 -13,140 -26,600 -3,859 -14,423 -18,848 -18,503 -24,344 -12,418 -11,444 0,961 -4,569 -13,121 -18,909 -18,151 -12,474 -11,912 -8,566 -11,671 -1,701 3,135 -6,870 -5,079 -7,036 -13,564 -12,428 -11,567 -11,671 -20,015 -7,748 -5,379 -2,935 -4,834 -5,825 -11,940 -11,221 -7,470 -15,743 -9,497 -6,347 -4,717 -7,065 -5,824 -11,474 -15,419 -19,080 -17,728 -5,997 -8,388 -15,227 -8,436 -11,220 -15,795 -17,797 -6,414 -12,233 -17,042 -9,206 -14,314 9,760 11,235
-16,151 -10,885 -12,670 -27,134 -3,423 -15,074 -20,097 -19,751 -24,513 -12,095 -10,945 1,494 -3,939 -12,450 -20,100 -19,357 -12,671 -11,672 -8,175 -11,154 -1,151 -3,448 -8,998 -6,223 -7,197 -13,248 -11,847 -10,972 -10,766 -19,273 -7,800 -6,507 -3,535 -4,997 -5,332 -11,294 -10,702 -6,736 -15,278 -9,425 -6,681 -4,933 -6,822 -5,200 -10,853 -14,790 -18,662 -17,485 -5,788 -8,213 -15,476 -7,715 -10,125 -15,187 -17,551 -6,405 -12,018 -16,857 -11,158 -13,614 8,164 10,782
-15,706 -10,556 -11,902 -26,841 -2,475 -15,191 -20,652 -20,357 -24,099 -11,312 -10,000 2,562 -3,024 -11,723 -20,616 -19,904 -12,482 -11,118 -7,416 -10,279 -0,408 -6,815 -10,091 -6,739 -6,922 -12,647 -10,877 -9,979 -9,563 -18,332 -7,318 -6,770 -3,549 -4,696 -4,501 -10,174 -9,691 -5,648 -14,661 -8,639 -6,171 -4,502 -6,048 -4,143 -9,712 -13,612 -17,648 -16,838 -4,726 -7,263 -15,138 -6,490 -8,792 -13,866 -16,796 -5,689 -11,250 -16,111 -12,423 -12,900 6,510 10,736
-14,552 -9,746 -10,781 -25,550 -1,064 -14,619 -20,250 -20,025 -22,838 -9,929 -8,517 4,097 -1,891 -10,979 -20,202 -19,522 -11,752 -10,112 -6,150 -8,975 0,606 -7,257 -9,945 -6,420 -6,086 -11,619 -9,432 -8,504 -7,972 -17,183 -5,925 -6,001 -2,823 -3,768 -3,217 -8,479 -8,105 -4,068 -13,785 -7,036 -4,718 -3,294 -4,656 -2,598 -7,968 -11,789 -15,872 -15,561 -2,775 -5,495 -14,055 -4,740 -7,528 -11,793 -15,249 -4,187 -9,855 -14,636 -12,768 -12,159 4,798 11,062
-13,010 -8,643 -9,455 -23,749 0,503 -13,648 -19,262 -19,075 -20,957 -8,139 -6,697 5,698 -0,768 -10,266 -19,209 -18,547 -10,653 -8,804 -4,534 -7,426 1,784 -7,268 -9,177 -5,611 -4,906 -10,290 -7,684 -6,714 -6,178 -15,992 -3,733 -4,598 -1,623 -2,398 -1,628 -6,373 -6,150 -2,112 -12,641 -4,863 -2,649 -1,560 -2,868 -0,771 -5,813 -9,490 -13,478 -13,673 -0,279 -3,235 -12,569 -2,660 -6,674 -9,193 -12,937 -2,133 -8,005 -12,559 -12,630 -11,408 3,099 11,429
-11,580 -7,544 -8,171 -22,135 1,899 -12,706 -18,282 -18,064 -18,984 -6,316 -4,897 6,946 0,115 -9,645 -18,208 -17,544 -9,495 -7,492 -2,910 -5,972 2,883 -8,680 -8,489 -4,813 -3,709 -8,919 -5,967 -4,958 -4,617 -15,008 -1,361 -3,133 -0,387 -0,946 -0,047 -4,238 -4,212 -0,159 -11,282 -2,661 -0,528 0,244 -1,081 0,995 -3,621 -7,091 -10,906 -11,450 2,182 -1,035 -11,210 -0,616 -6,353 -6,492 -10,237 0,010 -6,067 -10,273 -12,526 -10,709 1,614 11,514
-10,582 -6,630 -7,129 -21,098 2,976 -12,016 -17,661 -17,352 -17,399 -4,779 -3,406 7,660 0,651 -9,187 -17,551 -16,875 -8,499 -6,405 -1,586 -4,908 3,645 -10,983 -8,084 -4,293 -2,690 -7,709 -4,583 -3,587 -3,765 -14,368 0,414 -1,968 0,568 0,285 1,238 -2,493 -2,655 1,320 -9,793 -0,987 1,155 1,720 0,338 2,403 -1,748 -5,014 -8,706 -9,304 4,084 0,621 -10,317 1,034 -6,385 -4,153 -7,708 1,785 -4,451 -8,257 -12,524 -10,183 0,570 11,245
-9,924 -5,825 -6,316 -20,481 3,836 -11,450 -17,249 -16,828 -16,270 -3,559 -2,241 8,001 0,949 -8,866 -17,118 -16,416 -7,627 -5,503 -0,601 -4,249 4,013 -12,268 -7,621 -3,897 -1,766 -6,629 -3,575 -2,701 -3,754 -13,927 1,296 -1,045 1,282 1,289 2,205 -1,295 -1,562 2,125 -8,269 0,008 2,308 2,795 1,327 3,412 -0,311 -3,451 -7,181 -7,545 5,288 1,650 -9,789 2,183 -6,376 -2,413 -5,783 3,009 -3,364 -6,804 -12,144 -9,866 0,001 10,818
-9,225 -4,880 -5,512 -19,814 4,729 -10,721 -16,604 -16,100 -15,275 -2,413 -1,159 8,337 1,293 -8,501 -16,501 -15,747 -6,630 -4,512 0,289 -3,708 4,201 -11,353 -6,650 -3,229 -0,660 -5,436 -2,702 -2,073 -4,203 -13,358 1,638 -0,041 2,079 2,331 3,116 -0,456 -0,713 2,474 -6,839 0,640 3,233 3,723 2,151 4,247 0,839 -2,286 -6,244 -6,260 6,071 2,372 -9,224 3,022 -5,932 -1,204 -4,600 3,835 -2,723 -5,911 -10,857 -9,605 -0,336 10,504
-8,135 -3,601 -4,477 -18,708 5,869 -9,650 -15,423 -14,892 -14,046 -1,059 0,117 8,998 1,957 -7,872 -15,401 -14,560 -5,286 -3,163 1,381 -2,953 4,527 -8,493 -4,984 -1,994 0,841 -3,901 -1,672 -1,381 -4,518 -12,437 2,001 1,312 3,263 3,661 4,263 0,334 0,166 2,741 -5,654 1,338 4,317 4,827 3,128 5,166 1,909 -1,285 -5,620 -5,391 6,836 3,201 -8,263 3,817 -4,861 -0,310 -4,072 4,539 -2,294 -5,410 -8,634 -9,176 -0,790 10,462
-6,562 -1,983 -3,138 -17,074 7,315 -8,249 -13,720 -13,219 -12,425 0,619 1,699 10,106 3,039 -6,884 -13,807 -12,852 -3,561 -1,376 2,800 -1,855 5,164 -4,635 -2,751 -0,169 2,735 -1,987 -0,369 -0,481 -4,348 -11,205 2,731 3,073 4,922 5,333 5,745 1,249 1,177 3,128 -4,797 2,353 5,776 6,290 4,406 6,277 3,001 -0,307 -5,110 -4,833 7,851 4,373 -6,807 4,710 -3,226 0,453 -3,994 5,322 -1,872 -5,118 -5,920 -8,494 -1,555 10,700
-4,649 -0,173 -1,589 -15,072 8,978 -6,646 -11,721 -11,279 -10,484 2,547 3,514 11,571 4,430 -5,644 -11,914 -10,832 -1,590 0,734 4,466 -0,510 6,055 -0,719 -0,250 2,050 4,861 0,178 1,122 0,543 -3,754 -9,997 3,915 5,142 6,955 7,241 7,474 2,279 2,249 3,609 -4,236 3,724 7,628 8,134 5,963 7,559 4,114 0,664 -4,662 -4,458 9,200 5,926 -4,999 5,725 -1,291 1,189 -4,111 6,238 -1,337 -4,883 -3,234 -7,683 -2,521 11,151
-2,597 1,676 0,024 -12,922 10,716 -4,957 -9,671 -9,269 -8,395 4,564 5,415 13,210 5,926 -4,357 -9,932 -8,734 0,456 2,974 6,207 0,897 7,029 2,629 2,219 4,412 7,056 2,433 2,643 1,549 -2,980 -9,344 5,513 7,378 9,197 9,258 9,308 3,343 3,285 4,097 -3,843 5,385 9,783 10,279 7,717 8,965 5,222 1,598 -4,260 -4,112 10,859 7,800 -3,045 6,861 0,594 1,953 -4,218 7,231 -0,628 -4,598 -0,886 -6,930 -3,389 11,762
-0,578 3,429 1,559 -10,804 12,348 -3,265 -7,774 -7,354 -6,382 6,469 7,217 14,818 7,310 -3,230 -8,038 -6,772 2,410 5,102 7,830 2,184 7,913 5,157 4,426 6,673 9,169 4,598 4,039 2,439 -2,207 -9,643 7,412 9,626 11,439 11,238 11,082 4,346 4,221 4,569 -3,489 7,204 12,065 12,537 9,536 10,411 6,262 2,466 -3,852 -3,692 12,708 9,859 -1,119 8,076 2,096 2,731 -4,242 8,132 0,244 -4,224 1,011 -6,318 -3,911 12,496
1,140 4,816 2,783 -8,933 13,594 -1,743 -6,288 -5,792 -4,787 7,930 8,589 16,132 8,325 -2,489 -6,486 -5,220 3,952 6,725 9,035 3,108 8,500 6,846 6,116 8,501 10,908 6,345 5,066 3,068 -1,590 -10,807 9,329 11,603 13,341 12,897 12,523 5,108 4,939 4,959 -3,205 8,917 14,124 14,531 11,112 11,649 7,046 3,155 -3,464 -3,278 14,437 11,769 0,532 9,154 2,926 3,390 -4,287 8,592 1,105 -3,873 2,330 -5,856 -3,882 13,312
2,164 5,418 3,376 -7,603 14,141 -0,683 -5,529 -4,933 -4,031 8,522 9,096 16,865 8,715 -2,326 -5,622 -4,405 4,629 7,372 9,439 3,384 8,562 7,820 7,032 9,490 11,837 7,215 5,399 3,198 -1,347 -12,287 10,816 12,900 14,466 13,814 13,258 5,358 5,224 5,070 -3,191 10,111 15,479 15,749 11,969 12,270 7,268 3,456 -3,277 -3,113 15,583 13,016 1,545 9,722 2,881 3,724 -4,563 8,145 1,633 -3,780 2,907 -5,634 -2,997 14,161
2,225 4,984 3,162 -7,033 13,861 -0,237 -5,632 -4,961 -4,349 8,031 8,516 16,883 8,424 -2,704 -5,630 -4,468 4,183 6,818 8,866 2,912 8,040 8,385 7,149 9,441 11,685 6,933 4,877 2,715 -1,589 -13,481 11,536 13,269 14,568 13,721 13,063 4,941 4,946 4,753 -3,567 10,465 15,814 15,862 11,775 11,978 6,751 3,241 -3,438 -3,364 15,797 13,202 1,683 9,510 1,977 3,637 -5,212 6,544 1,575 -4,112 2,787 -5,772 -1,057 14,968
1,447 3,698 2,288 -7,167 12,929 -0,253 -6,374 -5,682 -5,534 6,674 7,057 16,344 7,693 -3,327 -6,322 -5,186 2,815 5,314 7,541 1,908 7,155 8,925 6,747 8,572 10,598 5,653 3,689 1,793 -2,155 -14,109 11,504 12,845 13,800 12,733 12,059 3,990 4,233 4,115 -4,220 9,991 15,213 14,958 10,626 10,846 5,631 2,619 -3,880 -3,957 15,073 12,321 1,079 8,573 0,562 3,239 -6,182 4,033 0,935 -4,833 2,302 -6,205 1,648 15,613
0,249 2,036 1,071 -7,698 11,654 -0,492 -7,307 -6,637 -7,042 4,933 5,188 15,557 6,859 -3,884 -7,253 -6,109 1,026 3,390 5,896 0,724 6,217 9,614 6,139 7,316 8,985 3,828 2,212 0,746 -2,775 -14,255 10,980 11,956 12,538 11,234 10,608 2,826 3,358 3,407 -4,963 8,942 14,012 13,403 8,941 9,241 4,246 1,827 -4,392 -4,682 13,649 10,682 0,123 7,190 -0,880 2,685 -7,252 1,188 -0,093 -5,747 1,766 -6,711 4,408 15,963
-0,934 0,452 -0,209 -8,225 10,256 -0,836 -7,998 -7,364 -8,283 3,250 3,327 14,769 6,131 -4,235 -7,975 -6,805 -0,714 1,529 4,276 -0,370 5,414 10,334 5,463 6,021 7,232 1,895 0,757 -0,211 -3,294 -14,131 10,230 10,837 11,098 9,590 9,070 1,749 2,537 2,818 -5,719 7,584 12,533 11,568 7,171 7,559 2,884 1,029 -4,807 -5,320 11,805 8,661 -0,822 5,654 -2,040 1,991 -8,048 -1,436 -1,262 -6,554 1,259 -7,117 6,685 15,990
-1,821 -0,768 -1,345 -8,410 8,871 -1,229 -8,162 -7,553 -8,855 1,907 1,728 14,136 5,595 -4,364 -8,186 -6,990 -2,100 0,032 2,883 -1,195 4,851 10,856 4,747 4,885 5,607 0,165 -0,468 -0,970 -3,637 -13,800 9,464 9,620 9,692 8,064 7,715 0,972 1,910 2,458 -6,427 6,191 11,035 9,757 5,661 6,116 1,734 0,319 -5,011 -5,626 9,842 6,619 -1,540 4,223 -2,858 1,132 -8,075 -3,445 -2,281 -6,876 0,757 -7,340 8,456 15,838
-2,362 -1,547 -2,204 -8,229 7,610 -1,621 -7,836 -7,228 -8,754 0,989 0,501 13,682 5,267 -4,294 -7,905 -6,690 -3,013 -0,967 1,838 -1,654 4,600 10,932 3,999 3,986 4,278 -1,160 -1,315 -1,441 -3,740 -13,183 8,795 8,442 8,487 6,823 6,711 0,620 1,584 2,398 -6,958 5,043 9,714 8,194 4,602 5,104 0,961 -0,166 -4,900 -5,433 8,071 4,853 -2,002 3,127 -3,383 0,304 -7,101 -4,630 -2,890 -6,503 0,269 -7,337 9,878 15,661
-2,766 -2,027 -2,800 -8,099 6,497 -2,056 -7,447 -6,805 -8,415 0,354 -0,405 13,242 5,062 -4,089 -7,543 -6,305 -3,550 -1,518 1,151 -1,809 4,625 10,310 3,160 3,262 3,268 -2,029 -1,752 -1,614 -3,632 -12,345 8,136 7,363 7,526 5,871 6,042 0,635 1,541 2,571 -7,259 4,199 8,578 6,912 3,921 4,488 0,631 -0,326 -4,501 -4,910 6,605 3,433 -2,391 2,415 -3,698 -0,177 -5,594 -5,096 -3,104 -5,694 -0,250 -7,140 10,854 15,413
-3,340 -2,462 -3,278 -8,566 5,446 -2,668 -7,507 -6,798 -8,395 -0,267 -1,156 12,555 4,815 -3,875 -7,603 -6,330 -3,953 -1,818 0,690 -1,864 4,752 8,860 2,113 2,536 2,436 -2,582 -1,936 -1,628 -3,470 -11,661 7,243 6,293 6,662 5,031 5,492 0,735 1,558 2,735 -7,480 3,400 7,416 5,731 3,305 3,992 0,556 -0,313 -4,097 -4,517 5,261 2,146 -2,963 1,859 -3,923 -0,313 -4,419 -5,284 -3,280 -5,037 -0,924 -6,893 11,128 14,907
-4,266 -3,046 -3,765 -9,876 4,357 -3,499 -8,252 -7,464 -8,998 -1,056 -1,906 11,467 4,389 -3,788 -8,328 -7,006 -4,419 -2,085 0,277 -2,015 4,789 6,755 0,829 1,666 1,610 -3,036 -2,115 -1,705 -3,431 -11,648 5,946 5,137 5,709 4,111 4,815 0,583 1,333 2,632 -7,862 2,363 6,028 4,453 2,440 3,306 0,393 -0,487 -4,105 -4,650 3,794 0,728 -3,858 1,151 -4,156 -0,523 -4,121 -5,636 -3,804 -4,989 -1,795 -6,762 10,660 14,052
-5,487 -3,811 -4,270 -11,808 3,263 -4,428 -9,557 -8,707 -10,170 -2,000 -2,678 10,084 3,783 -3,913 -9,600 -8,237 -4,988 -2,430 -0,169 -2,332 4,658 4,480 -0,541 0,655 0,728 -3,526 -2,444 -1,975 -3,574 -12,562 4,314 3,954 4,621 3,065 3,914 0,015 0,715 2,172 -8,537 1,066 4,442 3,059 1,251 2,327 -0,087 -1,104 -4,764 -5,408 2,189 -0,862 -5,001 0,184 -4,421 -1,202 -4,710 -6,232 -4,742 -5,604 -2,750 -6,830 9,755 12,995
-6,710 -4,604 -4,700 -13,771 2,358 -5,253 -11,013 -10,127 -11,553 -2,919 -3,356 8,801 3,165 -4,234 -11,022 -9,642 -5,539 -2,809 -0,592 -2,733 4,433 2,656 -1,735 -0,329 -0,111 -4,030 -2,894 -2,390 -3,796 -14,070 2,624 2,897 3,516 2,020 2,904 -0,858 -0,175 1,486 -9,451 -0,286 2,888 1,717 -0,048 1,218 -0,841 -2,098 -5,944 -6,585 0,681 -2,415 -6,127 -0,870 -4,668 -2,367 -5,854 -6,800 -5,805 -6,593 -3,580 -7,054 8,883 12,047
-7,545 -5,134 -4,912 -15,127 1,896 -5,772 -12,111 -11,212 -12,658 -3,566 -3,749 8,101 2,805 -4,588 -12,100 -10,737 -5,854 -3,045 -0,818 -3,010 4,314 1,768 -2,501 -1,041 -0,693 -4,383 -3,274 -2,752 -3,885 -15,440 1,179 2,110 2,607 1,218 2,061 -1,711 -1,020 0,865 -10,324 -1,468 1,634 0,676 -1,082 0,321 -1,604 -3,136 -7,209 -7,766 -0,449 -3,616 -6,899 -1,688 -4,773 -3,676 -7,069 -6,978 -6,580 -7,518 -4,081 -7,253 8,312 11,462
-7,720 -5,112 -4,766 -15,565 2,061 -5,825 -12,511 -11,623 -13,124 -3,726 -3,654 8,253 2,933 -4,681 -12,501 -11,190 -5,700 -2,908 -0,632 -2,936 4,502 1,978 -2,693 -1,266 -0,781 -4,352 -3,348 -2,857 -3,708 -16,138 0,129 1,684 2,103 0,908 1,671 -2,212 -1,519 0,574 -10,704 -2,378 0,846 0,139 -1,538 -0,055 -2,072 -3,847 -8,093 -8,493 -1,038 -4,223 -7,078 -1,984 -4,555 -4,677 -7,906 -6,538 -6,765 -8,009 -4,112 -7,184 7,888 11,253
-7,213 -4,402 -4,182 -15,192 2,893 -5,341 -12,181 -11,337 -12,870 -3,302 -2,958 9,213 3,624 -4,276 -12,190 -10,953 -4,940 -2,251 0,089 -2,420 5,056 3,137 -2,306 -0,926 -0,241 -3,787 -2,979 -2,640 -3,372 -16,084 -0,574 1,636 2,100 1,204 1,862 -2,235 -1,589 0,656 -10,205 -3,041 0,539 0,160 -1,318 0,200 -2,088 -4,046 -8,381 -8,505 -1,066 -4,171 -6,639 -1,651 -3,873 -5,087 -8,145 -5,433 -6,266 -7,909 -3,647 -6,712 7,290 11,250
-6,265 -3,132 -3,259 -14,366 4,231 -4,449 -11,371 -10,609 -12,122 -2,423 -1,777 10,706 4,720 -3,405 -11,408 -10,241 -3,686 -1,156 1,226 -1,614 5,821 4,976 -1,500 -0,151 0,809 -2,783 -2,257 -2,236 -3,162 -15,412 -1,132 1,853 2,501 1,974 2,512 -1,923 -1,396 0,910 -8,815 -3,595 0,563 0,593 -0,596 0,922 -1,738 -3,836 -8,198 -7,891 -0,657 -3,609 -5,807 -0,837 -2,800 -4,954 -7,891 -3,796 -5,214 -7,337 -2,816 -5,940 6,474 11,291
-5,238 -1,662 -2,273 -13,469 5,734 -3,454 -10,453 -9,808 -11,281 -1,420 -0,450 12,345 5,902 -2,361 -10,539 -9,398 -2,282 0,059 2,460 -0,822 6,546 7,319 -0,546 0,745 2,011 -1,656 -1,446 -1,859 -3,264 -14,321 -1,838 2,103 3,042 2,893 3,320 -1,552 -1,202 1,096 -6,980 -4,268 0,637 1,145 0,269 1,775 -1,281 -3,500 -7,853 -7,013 -0,074 -2,852 -4,936 0,129 -1,639 -4,582 -7,450 -1,918 -3,921 -6,605 -1,846 -5,134 5,697 11,293
-4,371 -0,341 -1,443 -12,692 7,099 -2,557 -9,645 -9,143 -10,611 -0,549 0,742 13,824 6,939 -1,393 -9,813 -8,646 -1,022 1,120 3,545 -0,205 7,126 10,224 0,386 1,508 3,057 -0,670 -0,739 -1,572 -3,534 -13,066 -2,848 2,228 3,496 3,696 4,057 -1,278 -1,113 1,180 -5,290 -5,183 0,559 1,596 0,982 2,493 -0,921 -3,241 -7,551 -6,215 0,426 -2,162 -4,223 0,977 -0,654 -4,239 -7,052 -0,118 -2,704 -5,988 -0,858 -4,475 5,160 11,260
-3,625 0,719 -0,704 -11,976 8,271 -1,648 -8,839 -8,489 -10,025 0,237 1,815 15,078 7,881 -0,445 -9,118 -7,899 0,104 2,061 4,530 0,383 7,711 13,811 1,386 2,179 3,972 0,216 -0,061 -1,192 -3,579 -11,822 -3,926 2,339 3,895 4,410 4,771 -0,996 -0,962 1,388 -4,047 -6,126 0,423 1,998 1,545 3,075 -0,607 -2,991 -7,237 -5,569 0,775 -1,541 -3,548 1,680 0,212 -3,917 -6,666 1,426 -1,697 -5,518 0,253 -3,878 4,744 11,286
-2,809 1,609 0,194 -11,174 9,366 -0,492 -7,784 -7,571 -9,212 1,185 2,983 16,218 8,936 0,733 -8,175 -6,912 1,311 3,123 5,655 1,231 8,550 17,589 2,567 2,992 5,016 1,255 0,814 -0,474 -3,080 -10,609 -4,505 2,685 4,454 5,258 5,696 -0,476 -0,488 1,992 -3,159 -6,633 0,522 2,581 2,200 3,713 -0,121 -2,526 -6,711 -4,923 1,097 -0,795 -2,647 2,395 1,246 -3,429 -6,114 2,703 -0,857 -5,025 1,602 -3,107 4,063 11,448
-1,877 2,387 1,325 -10,317 10,372 0,841 -6,519 -6,407 -8,030 2,387 4,296 17,247 10,142 2,214 -6,987 -5,701 2,645 4,391 6,999 2,407 9,677 19,804 3,596 3,950 6,277 2,530 1,939 0,581 -2,059 -9,470 -4,212 3,228 5,197 6,297 6,910 0,344 0,325 3,003 -2,465 -6,416 0,982 3,414 3,078 4,494 0,605 -1,774 -5,918 -4,201 1,489 0,173 -1,481 3,193 2,569 -2,722 -5,357 3,726 -0,139 -4,425 2,883 -2,088 2,750 11,627
-1,138 2,866 2,363 -9,781 10,991 1,768 -5,605 -5,547 -6,804 3,520 5,408 17,879 11,176 3,669 -6,085 -4,793 3,758 5,536 8,245 3,559 10,736 18,023 3,616 4,571 7,406 3,698 2,988 1,592 -0,936 -8,673 -3,359 3,442 5,723 7,178 8,070 1,162 1,081 4,032 -2,042 -5,701 1,515 4,181 3,928 5,168 1,262 -1,041 -5,152 -3,632 1,836 1,138 -0,484 3,853 3,875 -2,081 -4,699 4,405 0,345 -3,927 3,267 -1,121 0,854 11,496
-1,074 2,731 2,828 -10,050 10,850 1,625 -5,722 -5,665 -6,142 4,063 5,797 17,726 11,571 4,582 -6,140 -4,857 4,139 6,034 8,882 4,141 11,218 11,317 1,989 4,271 7,859 4,217 3,459 2,039 -0,261 -8,548 -2,697 2,776 5,527 7,399 8,625 1,498 1,246 4,539 -2,102 -5,038 1,664 4,413 4,297 5,317 1,388 -0,811 -4,871 -3,581 1,935 1,722 -0,278 4,021 4,667 -1,939 -4,597 4,626 0,404 -3,898 2,080 -0,670 -1,035 10,842
-1,849 1,928 2,542 -11,194 9,899 0,376 -6,933 -6,836 -6,349 3,802 5,263 16,715 11,150 4,680 -7,248 -5,981 3,616 5,672 8,668 3,896 10,923 1,859 -0,877 3,002 7,431 3,852 3,111 1,699 -0,289 -9,098 -2,665 1,294 4,545 6,812 8,303 1,106 0,632 4,289 -2,656 -4,778 1,264 3,954 3,968 4,759 0,796 -1,313 -5,288 -4,165 1,748 1,747 -1,071 3,554 4,690 -2,466 -5,244 4,408 -0,021 -4,485 -0,394 -0,923 -2,123 9,856
-3,157 0,750 1,704 -12,775 8,435 -1,375 -8,636 -8,474 -7,201 2,952 4,036 15,141 10,101 4,035 -8,850 -7,614 2,450 4,684 7,762 2,998 10,064 -6,588 -3,819 1,272 6,353 2,799 2,086 0,750 -0,881 -9,952 -3,159 -0,427 3,143 5,670 7,247 0,098 -0,520 3,469 -3,471 -4,917 0,476 3,005 3,076 3,640 -0,343 -2,399 -6,233 -5,166 1,337 1,277 -2,494 2,575 4,014 -3,488 -6,444 3,805 -0,868 -5,517 -3,140 -1,703 -1,973 8,975
-4,565 -0,455 0,584 -14,282 6,765 -3,023 -10,179 -9,930 -8,275 1,832 2,463 13,352 8,684 2,830 -10,326 -9,136 1,003 3,430 6,459 1,774 8,944 -11,726 -5,988 -0,406 4,963 1,386 0,665 -0,505 -1,766 -10,694 -3,891 -1,929 1,680 4,284 5,766 -1,254 -1,849 2,419 -4,301 -5,325 -0,511 1,818 1,872 2,210 -1,753 -3,754 -7,370 -6,260 0,669 0,410 -4,032 1,275 2,797 -4,725 -7,819 2,770 -2,060 -6,699 -5,354 -2,751 -0,722 8,490
-5,787 -1,500 -0,644 -15,431 5,045 -4,314 -11,255 -10,889 -9,250 0,653 0,790 11,537 7,073 1,242 -11,369 -10,232 -0,471 2,176 5,009 0,491 7,754 -13,718 -7,281 -1,787 3,528 -0,118 -0,886 -1,825 -2,708 -11,071 -4,641 -3,103 0,338 2,873 4,176 -2,666 -3,083 1,424 -5,021 -5,861 -1,567 0,573 0,594 0,725 -3,173 -5,046 -8,388 -7,191 -0,284 -0,734 -5,355 -0,135 1,204 -5,920 -9,002 1,332 -3,438 -7,760 -6,839 -3,889 1,148 8,431
-6,697 -2,315 -1,821 -16,155 3,395 -5,210 -11,840 -11,337 -9,960 -0,417 -0,777 9,776 5,420 -0,496 -11,946 -10,856 -1,750 1,126 3,656 -0,644 6,627 -13,835 -7,944 -2,773 2,298 -1,451 -2,282 -2,991 -3,506 -10,975 -5,291 -3,972 -0,754 1,659 2,796 -3,877 -4,038 0,682 -5,570 -6,373 -2,532 -0,541 -0,530 -0,538 -4,329 -5,986 -9,082 -7,807 -1,336 -1,928 -6,322 -1,374 -0,520 -6,821 -9,736 -0,186 -4,690 -8,493 -7,718 -4,972 3,126 8,698
-7,238 -2,841 -2,745 -16,498 1,975 -5,655 -12,000 -11,378 -10,324 -1,160 -2,001 8,112 3,901 -2,093 -12,113 -11,064 -2,577 0,491 2,665 -1,452 5,708 -13,071 -8,156 -3,285 1,537 -2,334 -3,231 -3,774 -3,979 -10,440 -5,820 -4,522 -1,451 0,886 1,905 -4,673 -4,585 0,325 -5,884 -6,742 -3,212 -1,332 -1,306 -1,326 -4,968 -6,380 -9,350 -8,028 -2,124 -2,875 -6,863 -2,152 -2,060 -7,202 -9,898 -1,259 -5,456 -8,772 -8,084 -5,848 4,809 9,189
-7,376 -3,000 -3,239 -16,540 0,928 -5,548 -11,777 -11,089 -10,286 -1,357 -2,676 6,576 2,660 -3,321 -11,898 -10,895 -2,727 0,454 2,246 -1,814 5,121 -11,732 -7,938 -3,262 1,417 -2,566 -3,542 -4,012 -4,020 -9,727 -6,281 -4,712 -1,643 0,717 1,659 -4,940 -4,660 0,429 -5,858 -6,951 -3,492 -1,696 -1,631 -1,515 -4,958 -6,167 -9,143 -7,799 -2,378 -3,379 -6,925 -2,318 -3,147 -6,934 -9,452 -1,514 -5,520 -8,535 -7,915 -6,396 5,900 9,836
-7,101 -2,741 -3,229 -16,334 0,347 -4,841 -11,174 -10,485 -9,823 -0,917 -2,701 5,260 1,804 -4,068 -11,298 -10,342 -2,108 1,080 2,482 -1,708 4,925 -9,618 -7,237 -2,696 1,967 -2,097 -3,184 -3,684 -3,640 -9,314 -6,758 -4,524 -1,320 1,152 2,045 -4,676 -4,278 0,998 -5,391 -7,073 -3,394 -1,655 -1,518 -1,153 -4,338 -5,433 -8,470 -7,087 -2,099 -3,425 -6,488 -1,925 -3,643 -6,052 -8,412 -0,942 -4,907 -7,786 -7,180 -6,564 6,212 10,556
-6,363 -2,021 -2,694 -15,793 0,352 -3,555 -10,115 -9,483 -8,886 0,138 -2,049 4,419 1,487 -4,247 -10,239 -9,317 -0,744 2,337 3,374 -1,131 5,190 -6,325 -5,956 -1,583 3,149 -0,950 -2,202 -2,828 -2,868 -9,541 -7,208 -3,920 -0,497 2,132 2,992 -3,898 -3,455 2,003 -4,435 -7,111 -2,956 -1,223 -0,987 -0,325 -3,209 -4,300 -7,362 -5,887 -1,421 -3,035 -5,525 -1,081 -3,493 -4,668 -6,843 0,267 -3,755 -6,562 -5,876 -6,312 5,707 11,273
-4,984 -0,730 -1,564 -14,588 1,143 -1,704 -8,386 -7,841 -7,297 1,804 -0,664 4,491 1,956 -3,722 -8,520 -7,593 1,322 4,218 4,941 0,007 6,079 -1,579 -3,969 0,156 4,984 0,892 -0,587 -1,407 -1,604 -10,084 -7,302 -2,765 0,897 3,690 4,540 -2,519 -2,083 3,501 -2,999 -6,816 -2,071 -0,268 0,086 1,035 -1,564 -2,746 -5,760 -4,186 -0,351 -2,097 -3,912 0,238 -2,641 -2,819 -4,815 2,006 -2,134 -4,861 -3,981 -5,507 4,512 12,021
-2,785 1,198 0,193 -12,349 2,853 0,663 -5,804 -5,338 -4,858 4,064 1,458 5,853 3,372 -2,449 -5,969 -4,996 3,970 6,686 7,162 1,797 7,695 4,266 -1,319 2,531 7,460 3,410 1,642 0,607 0,271 -10,049 -6,548 -0,967 2,898 5,862 6,768 -0,453 -0,041 5,549 -1,201 -5,853 -0,604 1,340 1,845 3,040 0,628 -0,677 -3,596 -2,045 1,162 -0,492 -1,530 2,088 -1,129 -0,521 -2,461 4,205 -0,096 -2,710 -1,548 -4,053 2,841 12,915
0,083 3,549 2,357 -9,122 5,271 3,221 -2,595 -2,162 -1,685 6,674 4,045 8,430 5,536 -0,662 -2,811 -1,759 6,823 9,464 9,769 4,085 9,827 9,716 1,487 5,203 10,288 6,327 4,238 3,001 2,639 -8,820 -4,704 1,221 5,227 8,400 9,480 2,132 2,502 7,957 0,611 -4,189 1,284 3,413 4,113 5,539 3,152 1,762 -1,078 0,216 2,932 1,573 1,424 4,267 0,705 1,990 -0,148 6,565 2,091 -0,402 1,032 -2,136 0,947 13,900
3,017 5,782 4,438 -5,594 7,797 5,323 0,504 0,959 1,643 9,110 6,527 11,585 7,897 1,186 0,231 1,382 9,263 11,998 12,231 6,412 11,970 12,403 3,524 7,467 12,864 9,068 6,697 5,295 5,069 -6,626 -2,062 3,153 7,271 10,736 12,142 4,754 5,021 10,230 1,959 -2,219 3,076 5,399 6,334 8,037 5,503 4,117 1,268 2,076 4,491 3,546 4,313 6,300 2,313 4,233 1,587 8,554 3,950 1,530 3,017 -0,205 -0,912 14,650
5,257 7,320 5,943 -2,737 9,765 6,349 2,621 3,133 4,327 10,823 8,320 14,450 9,858 2,680 2,302 3,559 10,740 13,733 14,012 8,240 13,623 10,662 4,027 8,645 14,572 11,041 8,491 6,964 7,004 -4,274 0,628 4,155 8,427 12,287 14,160 6,844 6,908 11,802 2,581 -0,562 4,187 6,691 7,884 9,951 7,174 5,877 2,892 3,121 5,359 4,850 6,380 7,715 3,282 5,747 2,350 9,684 5,059 2,630 3,750 1,309 -2,542 14,797
6,346 7,883 6,627 -1,180 10,822 6,130 3,302 3,867 5,800 11,550 9,129 16,392 11,052 3,579 2,961 4,300 11,080 14,419 14,841 9,218 14,508 5,270 2,986 8,527 15,135 11,955 9,330 7,690 7,986 -2,534 2,532 3,993 8,466 12,788 15,204 8,006 7,797 12,307 2,631 0,278 4,305 6,971 8,419 10,919 7,926 6,742 3,496 3,272 5,306 5,176 7,215 8,275 3,551 6,322 2,104 9,740 5,248 2,760 3,139 2,177 -3,821 14,277
